AF3,F7,F3,FC5,T7,P7,O1,O2,P8,T8,FC6,F4,F8,AF4
4664.615234,4101.025391,4520,4392.820313,4368.717773,4688.717773,4432.307617,4720,3928.717773,4440.512695,4929.230469,4393.333008,4689.230469,4096.410156
4666.666504,4096.410156,4520.512695,4395.384277,4371.794922,4690.256348,4447.692383,4725.12793,3919.487061,4418.974121,4920.512695,4392.307617,4694.871582,4096.922852
4663.589844,4095.897217,4517.94873,4394.358887,4369.230469,4692.820313,4454.358887,4724.102539,3923.076904,4431.281738,4928.717773,4382.05127,4690.769043,4089.230713
4657.435547,4101.025391,4515.897461,4390.769043,4367.692383,4692.820313,4452.307617,4725.12793,3937.435791,4453.846191,4941.025391,4374.358887,4680.512695,4082.05127
4652.307617,4094.358887,4508.717773,4384.615234,4368.205078,4691.281738,4456.410156,4721.538574,3917.94873,4424.615234,4922.05127,4363.07666,4677.435547,4073.333252
4648.717773,4084.615234,4501.025391,4381.025391,4362.563965,4691.794922,4450.769043,4708.717773,3898.461426,4397.435547,4905.12793,4348.205078,4665.641113,4056.410156
4645.12793,4084.615234,4496.922852,4378.974121,4355.897461,4686.666504,4434.358887,4703.07666,3911.281982,4409.230469,4909.743652,4346.666504,4655.897461,4053.845947
4642.563965,4081.025635,4493.333008,4372.307617,4349.743652,4685.641113,4422.563965,4700.512695,3903.076904,4391.281738,4899.486816,4349.743652,4658.974121,4060.512695
4635.384277,4074.358887,4485.641113,4366.153809,4343.589844,4685.12793,4418.461426,4694.358887,3884.102539,4373.333008,4886.153809,4342.05127,4658.461426,4052.820313
4626.153809,4073.333252,4476.922852,4361.538574,4334.871582,4680.512695,4412.820313,4685.12793,3894.358887,4400.512695,4895.897461,4332.820313,4650.769043,4036.410156
4622.05127,4067.179443,4468.717773,4351.794922,4325.12793,4678.974121,4398.974121,4673.846191,3891.281982,4401.025391,4891.281738,4318.461426,4640.512695,4022.05127
4611.281738,4051.281982,4456.922852,4338.461426,4311.281738,4673.846191,4389.230469,4662.05127,3857.94873,4359.487305,4861.025391,4303.07666,4626.153809,4008.717773
4597.435547,4036.923096,4443.589844,4328.717773,4295.384277,4670.769043,4377.435547,4650.769043,3836.410156,4327.179199,4841.025391,4294.358887,4608.717773,3999.487061
4586.666504,4029.230713,4429.743652,4319.487305,4284.102539,4667.179199,4354.871582,4637.435547,3822.05127,4303.07666,4830.769043,4279.487305,4589.230469,3988.717773
4574.871582,4021.025635,4417.435547,4309.230469,4274.358887,4658.974121,4346.153809,4630.256348,3813.845947,4294.871582,4826.666504,4259.487305,4574.358887,3968.205078
4561.538574,4007.179443,4408.205078,4296.922852,4257.94873,4657.435547,4349.743652,4628.717773,3823.076904,4309.743652,4836.922852,4248.717773,4566.666504,3949.743408
4549.230469,3993.845947,4394.871582,4286.153809,4248.205078,4654.871582,4331.794922,4617.94873,3814.358887,4295.384277,4826.666504,4235.384277,4563.07666,3943.5896
4542.05127,3986.153809,4383.07666,4277.436035,4242.05127,4650.256348,4310.769043,4602.05127,3778.461426,4247.692383,4793.846191,4215.897461,4546.666504,3933.845947
4538.974121,3982.05127,4377.435547,4268.205078,4230.256348,4649.743652,4310.769043,4593.846191,3767.692139,4233.333008,4789.230469,4209.743652,4528.717773,3922.563965
4530.769043,3975.384521,4370.769043,4261.538574,4218.974121,4646.666504,4302.05127,4587.692383,3776.410156,4236.922852,4796.410156,4213.333008,4527.179199,3922.05127
4515.897461,3966.153809,4362.05127,4254.358887,4212.307617,4641.025391,4283.589844,4571.281738,3757.435791,4214.871582,4777.435547,4202.563965,4525.641113,3915.897461
4511.794922,3961.53833,4359.487305,4246.666504,4209.230469,4637.94873,4283.589844,4564.615234,3739.487061,4206.666504,4769.230469,4193.333008,4521.025391,3905.640869
4521.538574,3962.05127,4365.641113,4249.230469,4213.846191,4643.589844,4294.871582,4574.871582,3757.94873,4231.281738,4792.307617,4200,4517.435547,3909.230713
4526.666504,3972.307617,4370.769043,4262.05127,4228.205078,4632.820313,4310.256348,4592.820313,3775.897461,4242.563965,4794.358887,4217.436035,4531.281738,3928.205078
4525.641113,3978.974365,4374.871582,4264.615234,4230.769043,4635.897461,4306.666504,4593.333008,3766.153809,4228.717773,4784.615234,4223.07666,4542.563965,3934.358887
4520.512695,3971.281982,4372.820313,4255.897461,4213.846191,4655.897461,4284.615234,4573.333008,3764.102539,4225.12793,4798.461426,4206.666504,4523.589844,3919.487061
4508.205078,3962.05127,4356.922852,4246.666504,4207.179199,4635.384277,4286.666504,4573.846191,3759.487061,4206.666504,4781.025391,4197.94873,4510.256348,3912.820313
4507.179199,3954.871582,4348.717773,4237.94873,4203.07666,4632.820313,4286.666504,4575.897461,3740.512695,4177.94873,4760.512695,4200,4513.846191,3910.769043
4507.692383,3952.307617,4347.179199,4234.871582,4194.871582,4644.102539,4265.12793,4558.974121,3745.128174,4198.461426,4779.487305,4191.281738,4508.205078,3901.53833
4502.05127,3960.512695,4343.589844,4241.538574,4204.102539,4630.256348,4266.666504,4552.820313,3757.94873,4227.179199,4787.692383,4184.615234,4502.05127,3897.435791
4518.461426,3976.410156,4358.461426,4256.922852,4221.538574,4638.974121,4288.205078,4566.666504,3761.53833,4223.07666,4790.769043,4201.025391,4518.974121,3914.871582
4537.94873,3988.717773,4378.461426,4265.641113,4228.717773,4646.153809,4293.846191,4585.641113,3773.845947,4230.256348,4805.12793,4226.153809,4546.153809,3939.487061
4530.769043,3990.769043,4373.846191,4260.512695,4227.692383,4632.307617,4286.666504,4582.563965,3777.94873,4242.563965,4804.102539,4228.717773,4544.615234,3937.94873
4526.666504,3982.563965,4362.05127,4252.307617,4222.05127,4642.563965,4281.538574,4561.538574,3758.461426,4222.563965,4790.769043,4209.230469,4521.025391,3916.923096
4532.820313,3975.897217,4359.487305,4249.743652,4216.410156,4648.717773,4280.512695,4564.102539,3747.692139,4200.512695,4784.615234,4205.12793,4519.487305,3914.358887
4529.743652,3977.435791,4353.846191,4250.769043,4215.384277,4627.179199,4275.384277,4584.102539,3753.333252,4208.205078,4782.05127,4217.94873,4532.820313,3926.153809
4521.538574,3975.897217,4345.641113,4244.615234,4208.205078,4629.743652,4258.974121,4569.743652,3752.820313,4220,4784.102539,4205.641113,4511.794922,3913.333252
4509.743652,3964.615234,4337.94873,4233.846191,4196.410156,4632.307617,4251.794922,4550.256348,3749.230713,4215.384277,4781.025391,4187.179199,4493.333008,3893.845947
4500.512695,3950.256348,4332.307617,4230.769043,4190.256348,4626.153809,4250.769043,4553.333008,3741.53833,4203.07666,4772.307617,4188.205078,4508.205078,3891.794678
4501.025391,3949.230713,4327.692383,4232.820313,4186.153809,4626.153809,4243.589844,4550.256348,3731.281982,4194.871582,4766.666504,4182.563965,4507.692383,3891.794678
4495.897461,3952.307617,4317.436035,4225.641113,4180.512695,4620.512695,4237.94873,4544.102539,3714.871582,4169.230469,4748.717773,4165.641113,4480,3879.487061
4486.153809,3941.53833,4308.205078,4214.871582,4171.281738,4622.05127,4231.281738,4536.410156,3702.05127,4150.769043,4739.487305,4153.846191,4458.461426,3861.025635
4481.538574,3934.871582,4304.615234,4211.281738,4164.102539,4616.410156,4224.615234,4536.410156,3711.794678,4170.769043,4752.820313,4159.487305,4472.307617,3864.102539
4483.07666,3936.923096,4304.102539,4211.794922,4163.589844,4616.922852,4222.563965,4541.025391,3717.94873,4173.846191,4752.307617,4166.153809,4487.692383,3873.333252
4481.025391,3934.871582,4302.05127,4211.281738,4168.205078,4618.974121,4227.179199,4535.897461,3704.102539,4151.794922,4737.94873,4159.487305,4476.410156,3865.640869
4473.333008,3931.281982,4296.922852,4204.615234,4165.12793,4613.333008,4226.153809,4526.666504,3699.487061,4156.922852,4738.974121,4154.358887,4459.487305,3857.94873
4474.871582,3931.281982,4296.922852,4198.974121,4155.384277,4614.871582,4212.307617,4518.461426,3708.717773,4170.256348,4747.692383,4153.333008,4459.487305,3856.923096
4479.487305,3932.820313,4295.384277,4200,4157.436035,4609.743652,4205.12793,4517.94873,3700,4148.717773,4731.794922,4154.358887,4465.641113,3860
4479.487305,3930.256348,4295.384277,4201.025391,4162.05127,4611.794922,4205.12793,4513.846191,3682.563965,4124.615234,4718.974121,4154.871582,4451.281738,3862.05127
4480,3930.769043,4296.410156,4198.461426,4157.436035,4613.846191,4204.615234,4506.666504,3693.845947,4143.589844,4734.358887,4154.871582,4444.615234,3863.5896
4477.94873,3935.384521,4292.307617,4193.846191,4154.871582,4606.153809,4205.641113,4507.179199,3707.692139,4164.615234,4740,4153.333008,4466.153809,3864.615234
4473.333008,3934.358887,4293.846191,4195.897461,4157.436035,4611.794922,4201.538574,4511.794922,3704.102539,4154.358887,4734.358887,4150.769043,4475.897461,3863.5896
4471.281738,3932.820313,4299.487305,4199.487305,4160,4609.743652,4197.436035,4523.07666,3708.717773,4160,4743.589844,4154.358887,4465.641113,3864.615234
4471.794922,3934.871582,4300.512695,4193.846191,4157.436035,4605.12793,4196.922852,4522.05127,3712.307617,4176.922852,4751.281738,4153.333008,4457.435547,3863.076904
4470.256348,3934.358887,4298.461426,4184.102539,4152.307617,4608.717773,4201.025391,4510.769043,3685.128174,4144.615234,4726.153809,4149.230469,4461.538574,3863.076904
4466.666504,3931.281982,4296.410156,4184.102539,4150.256348,4606.153809,4207.692383,4515.384277,3670.256348,4116.922852,4709.743652,4155.897461,4466.666504,3869.743408
4468.205078,3930.769043,4298.461426,4188.205078,4149.230469,4607.692383,4206.153809,4525.12793,3696.923096,4151.281738,4738.461426,4157.436035,4451.281738,3869.230713
4468.205078,3931.794678,4298.461426,4187.179199,4151.281738,4606.153809,4204.615234,4525.12793,3710.769043,4174.358887,4748.717773,4148.717773,4439.487305,3860
4467.179199,3929.743408,4295.384277,4187.179199,4155.897461,4605.641113,4207.179199,4523.07666,3688.205078,4144.615234,4725.12793,4145.641113,4458.974121,3856.410156
4468.205078,3925.128174,4292.307617,4191.281738,4155.897461,4608.205078,4210.256348,4522.563965,3678.461426,4133.333008,4723.589844,4149.743652,4475.384277,3860.512695
4462.05127,3921.53833,4290.256348,4189.743652,4149.230469,4604.102539,4209.743652,4517.435547,3688.205078,4150.769043,4731.281738,4139.487305,4448.205078,3850.769043
4452.820313,3917.94873,4287.179199,4185.12793,4145.641113,4606.153809,4201.538574,4506.153809,3679.487061,4135.384277,4716.410156,4124.615234,4413.846191,3833.333252
4451.281738,3917.435791,4286.666504,4182.563965,4147.179199,4603.589844,4198.974121,4509.230469,3680.512695,4132.307617,4716.410156,4131.281738,4427.692383,3837.94873
4450.769043,3912.307617,4286.153809,4179.487305,4142.05127,4603.07666,4204.615234,4521.538574,3701.025635,4167.692383,4739.487305,4135.897461,4449.743652,3843.076904
4441.025391,3903.5896,4279.487305,4172.307617,4135.384277,4605.641113,4205.641113,4522.563965,3691.281982,4158.461426,4729.743652,4117.436035,4428.205078,3826.666504
4432.307617,3904.615234,4270.769043,4169.743652,4134.358887,4598.461426,4202.05127,4516.410156,3661.53833,4108.205078,4694.358887,4103.07666,4407.179199,3819.487061
4437.435547,3906.666504,4275.384277,4173.333008,4132.307617,4600.512695,4198.461426,4503.07666,3652.307617,4093.845947,4688.717773,4111.281738,4414.871582,3834.358887
4440,3907.179443,4281.025391,4171.794922,4131.794922,4600.512695,4192.820313,4494.871582,3663.5896,4112.820313,4702.563965,4127.179199,4425.641113,3848.205078
4436.410156,3909.743408,4279.487305,4170.256348,4134.871582,4598.461426,4198.461426,4509.230469,3681.025635,4130.769043,4712.820313,4131.281738,4429.743652,3850.769043
4438.461426,3911.794678,4281.538574,4173.333008,4134.871582,4601.025391,4208.205078,4519.487305,3702.05127,4146.666504,4725.641113,4128.717773,4438.461426,3855.384521
4435.897461,3911.281982,4281.025391,4172.307617,4133.846191,4596.410156,4196.410156,4506.153809,3706.153809,4146.666504,4725.12793,4131.281738,4447.692383,3862.05127
4430.769043,3906.153809,4277.94873,4170.769043,4132.820313,4593.846191,4181.538574,4493.846191,3696.923096,4133.333008,4715.897461,4131.281738,4439.487305,3860
4432.307617,3907.179443,4278.461426,4175.897461,4132.820313,4590.256348,4184.615234,4498.974121,3698.974365,4132.307617,4717.435547,4126.666504,4434.871582,3856.410156
4433.333008,3914.358887,4280.512695,4177.94873,4136.922852,4585.12793,4188.717773,4497.94873,3691.281982,4116.410156,4707.692383,4122.563965,4429.743652,3855.897461
4427.692383,3916.923096,4276.922852,4173.333008,4137.436035,4583.07666,4186.153809,4483.07666,3665.128174,4087.692139,4683.589844,4117.436035,4404.615234,3851.281982
4420.512695,3910.256348,4269.230469,4171.794922,4133.846191,4578.974121,4180.512695,4474.871582,3658.974365,4094.871582,4683.589844,4105.641113,4388.717773,3843.076904
4415.897461,3903.5896,4262.05127,4170.769043,4128.717773,4580.512695,4163.589844,4462.563965,3665.640869,4104.615234,4692.307617,4083.5896,4371.281738,3824.615234
4411.281738,3904.615234,4252.307617,4167.692383,4120,4578.974121,4148.717773,4439.487305,3649.230713,4074.871582,4673.333008,4065.128174,4339.487305,3806.153809
4408.205078,3904.615234,4243.589844,4168.717773,4108.205078,4578.974121,4145.12793,4423.589844,3623.076904,4042.563965,4651.794922,4064.102539,4331.281738,3805.640869
4410.769043,3902.05127,4243.07666,4170.769043,4100.512695,4582.05127,4138.461426,4427.179199,3620.512695,4037.435791,4654.871582,4068.205078,4346.666504,3810.769043
4417.435547,3906.153809,4252.820313,4168.717773,4103.589844,4571.794922,4141.538574,4449.743652,3644.615234,4058.461426,4670.769043,4075.897217,4349.230469,3816.923096
4420.512695,3910.256348,4257.94873,4171.794922,4107.692383,4564.615234,4147.179199,4455.897461,3663.076904,4082.563965,4682.05127,4083.076904,4328.205078,3822.563965
4417.94873,3910.769043,4253.333008,4180,4107.179199,4550.256348,4138.461426,4429.230469,3647.179443,4070.256348,4670.256348,4078.461426,4318.461426,3818.974365
4417.94873,3913.333252,4251.794922,4181.025391,4105.641113,4524.615234,4123.07666,4404.615234,3616.923096,4034.358887,4647.692383,4066.153809,4330.256348,3809.743408
4416.922852,3912.307617,4250.256348,4177.94873,4102.05127,4513.846191,4125.12793,4406.153809,3602.05127,4018.974365,4637.435547,4054.871582,4326.153809,3798.974365
4409.230469,3901.53833,4243.07666,4178.461426,4100.512695,4525.12793,4138.974121,4413.846191,3596.923096,4014.358887,4628.717773,4046.153809,4298.461426,3793.333252
4407.692383,3896.923096,4242.563965,4175.384277,4100,4562.05127,4130.256348,4405.12793,3591.281982,4006.666504,4622.05127,4040.512695,4277.94873,3793.333252
4407.692383,3905.128174,4240,4169.743652,4096.922852,4591.281738,4108.717773,4394.358887,3584.102539,3997.94873,4619.487305,4032.820313,4274.871582,3787.692139
4399.487305,3906.153809,4229.230469,4168.717773,4094.871582,4590.256348,4108.717773,4392.820313,3578.461426,3990.769043,4618.461426,4022.05127,4275.897461,3774.358887
4396.410156,3900.512695,4229.743652,4169.230469,4095.897217,4592.307617,4125.641113,4396.410156,3582.563965,3991.281982,4621.025391,4017.435791,4276.922852,3765.640869
4401.538574,3905.128174,4237.436035,4168.717773,4101.025391,4596.922852,4133.846191,4402.563965,3590.256348,3997.435791,4622.563965,4026.153809,4279.487305,3769.230713
4403.589844,3908.717773,4235.897461,4171.794922,4100.512695,4591.281738,4126.153809,4401.538574,3593.333252,4006.153809,4628.205078,4035.384521,4275.384277,3772.307617
4404.102539,3903.5896,4235.384277,4171.794922,4094.358887,4587.692383,4126.153809,4396.922852,3599.487061,4025.128174,4638.974121,4035.897217,4273.333008,3768.717773
4400,3899.487061,4234.871582,4168.717773,4092.820313,4586.153809,4134.871582,4408.205078,3606.666504,4033.845947,4639.487305,4034.871582,4280.512695,3768.205078
4394.358887,3896.923096,4231.794922,4169.743652,4093.333252,4589.743652,4130.769043,4408.717773,3598.974365,4017.94873,4629.743652,4033.845947,4283.589844,3768.717773
4395.384277,3897.435791,4233.846191,4168.717773,4089.743408,4586.153809,4115.384277,4387.179199,3586.666504,4012.307617,4622.563965,4035.384521,4278.974121,3767.692139
4398.974121,3901.53833,4233.846191,4167.179199,4086.666504,4578.974121,4106.153809,4378.461426,3592.307617,4031.794678,4628.205078,4041.53833,4269.743652,3768.205078
4396.410156,3901.025635,4231.281738,4168.205078,4086.153809,4584.615234,4107.179199,4392.307617,3601.53833,4031.794678,4630.256348,4039.487061,4273.333008,3766.666504
4390.256348,3892.307617,4228.717773,4163.589844,4084.615234,4585.641113,4116.922852,4407.692383,3588.205078,4005.640869,4617.435547,4032.820313,4293.846191,3766.666504
4389.743652,3885.640869,4228.717773,4159.487305,4081.53833,4586.666504,4117.436035,4408.205078,3581.025635,4007.179443,4618.974121,4033.333252,4294.358887,3765.640869
4390.256348,3890.769043,4229.743652,4161.538574,4083.5896,4585.641113,4110.769043,4403.589844,3599.487061,4041.025635,4637.435547,4035.897217,4278.974121,3764.102539
4386.153809,3893.333252,4229.230469,4160.512695,4085.640869,4580,4120,4403.07666,3603.5896,4049.230713,4638.974121,4032.820313,4273.846191,3763.076904
4384.102539,3886.153809,4227.692383,4156.922852,4081.53833,4587.179199,4128.205078,4395.384277,3589.230713,4023.5896,4630.769043,4029.743408,4272.820313,3762.05127
4383.07666,3886.153809,4225.12793,4153.846191,4083.5896,4580.512695,4123.07666,4391.794922,3591.281982,4021.025635,4633.846191,4039.487061,4286.666504,3767.179443
4386.666504,3891.794678,4229.743652,4159.487305,4090.769043,4580,4118.461426,4397.435547,3600.512695,4037.94873,4641.538574,4047.179443,4300,3769.743408
4389.230469,3890.256348,4235.384277,4167.692383,4093.333252,4593.333008,4125.641113,4401.538574,3591.281982,4024.615234,4636.410156,4042.05127,4290.769043,3768.205078
4380.512695,3886.666504,4227.179199,4160.512695,4094.871582,4577.94873,4136.410156,4411.281738,3589.230713,4017.94873,4624.615234,4044.102539,4294.871582,3771.281982
4379.487305,3885.640869,4218.974121,4156.410156,4091.281982,4577.94873,4129.230469,4418.461426,3604.102539,4044.615234,4633.846191,4043.5896,4296.922852,3765.640869
4385.641113,3888.205078,4222.563965,4163.07666,4090.769043,4585.641113,4123.589844,4420.512695,3622.563965,4075.897217,4651.794922,4042.563965,4287.179199,3763.076904
4384.102539,3888.205078,4227.692383,4161.538574,4093.845947,4578.461426,4130.769043,4420.512695,3622.563965,4073.845947,4646.666504,4052.307617,4294.358887,3775.384521
4382.05127,3885.640869,4226.153809,4157.94873,4090.769043,4585.12793,4135.897461,4406.153809,3604.615234,4051.281982,4634.358887,4048.717773,4296.410156,3774.871582
4381.025391,3890.769043,4224.102539,4161.538574,4090.769043,4579.487305,4138.461426,4404.102539,3610.769043,4064.102539,4636.922852,4041.025635,4300,3768.717773
4384.102539,3894.358887,4230.769043,4165.641113,4095.384521,4578.974121,4130.256348,4415.897461,3634.871826,4096.410156,4654.871582,4048.205078,4314.358887,3773.845947
4385.12793,3891.281982,4233.846191,4163.07666,4096.410156,4583.589844,4122.05127,4417.435547,3638.974365,4105.12793,4660.512695,4056.410156,4316.410156,3776.923096
4381.025391,3886.666504,4228.205078,4162.05127,4096.410156,4575.897461,4133.333008,4417.435547,3617.435791,4084.102539,4641.025391,4052.307617,4299.487305,3771.281982
4382.05127,3884.615234,4226.153809,4163.589844,4096.922852,4580.512695,4143.589844,4424.102539,3598.461426,4056.923096,4628.205078,4043.5896,4285.641113,3763.5896
4383.07666,3886.153809,4226.666504,4163.589844,4096.410156,4578.461426,4137.436035,4434.358887,3604.102539,4058.974365,4632.307617,4044.615234,4298.461426,3767.692139
4381.025391,3881.53833,4227.692383,4163.07666,4094.871582,4577.435547,4130.769043,4442.563965,3623.5896,4089.743408,4649.743652,4048.205078,4311.281738,3773.845947
4382.05127,3880,4230.769043,4164.102539,4097.436035,4577.435547,4138.974121,4449.230469,3641.025635,4121.025391,4668.205078,4050.256348,4309.743652,3774.358887
4384.102539,3887.179443,4230.256348,4167.179199,4100,4573.846191,4149.743652,4451.794922,3636.410156,4113.333008,4661.538574,4051.281982,4305.12793,3771.281982
4387.179199,3888.717773,4230.256348,4168.205078,4097.94873,4576.922852,4145.12793,4447.179199,3620.512695,4089.743408,4644.102539,4052.820313,4301.538574,3772.820313
4387.692383,3884.615234,4229.743652,4167.692383,4100.512695,4573.333008,4135.897461,4444.102539,3624.102539,4095.384521,4646.666504,4056.410156,4309.743652,3781.025635
4387.179199,3882.563965,4228.717773,4166.153809,4103.589844,4574.358887,4128.205078,4431.794922,3628.717773,4108.205078,4656.410156,4052.820313,4312.820313,3778.461426
4388.717773,3886.153809,4229.230469,4164.615234,4099.487305,4572.820313,4124.102539,4418.974121,3624.102539,4111.794922,4653.846191,4046.666504,4306.153809,3769.230713
4391.794922,3891.281982,4229.743652,4164.615234,4098.461426,4568.717773,4125.641113,4422.05127,3623.076904,4108.205078,4646.666504,4048.717773,4302.563965,3767.179443
4395.897461,3891.794678,4233.333008,4164.615234,4103.07666,4572.820313,4126.666504,4425.12793,3622.05127,4097.94873,4643.07666,4058.461426,4307.179199,3775.897461
4395.897461,3893.333252,4236.922852,4165.12793,4106.666504,4570.769043,4134.871582,4422.05127,3617.435791,4093.333252,4637.94873,4062.563965,4314.358887,3783.5896
4396.410156,3894.871582,4233.846191,4164.102539,4106.666504,4575.897461,4136.922852,4417.94873,3619.487061,4103.589844,4638.461426,4055.384521,4311.794922,3778.974365
4400,3896.410156,4232.820313,4163.07666,4107.692383,4574.871582,4122.563965,4426.666504,3634.871826,4118.974121,4650.256348,4056.923096,4316.922852,3778.974365
4404.102539,3897.94873,4240.512695,4168.717773,4111.281738,4567.692383,4121.025391,4449.743652,3652.820313,4131.281738,4662.05127,4070.256348,4335.384277,3790.256348
4404.102539,3896.923096,4247.179199,4172.307617,4111.794922,4573.846191,4133.846191,4456.922852,3664.615234,4149.743652,4672.307617,4074.358887,4338.461426,3794.358887
4397.435547,3894.871582,4240.512695,4164.102539,4110.256348,4569.230469,4122.05127,4435.897461,3657.94873,4152.820313,4667.179199,4064.102539,4331.794922,3787.692139
4394.871582,3892.307617,4235.897461,4158.974121,4106.153809,4564.615234,4099.487305,4414.358887,3632.820313,4120,4645.12793,4055.384521,4329.230469,3778.974365
4396.922852,3891.281982,4243.07666,4163.589844,4106.153809,4564.615234,4112.307617,4419.487305,3625.640869,4104.615234,4641.025391,4060,4332.307617,3781.025635
4397.94873,3894.871582,4246.666504,4164.102539,4109.743652,4562.563965,4126.153809,4431.794922,3641.025635,4137.436035,4659.487305,4070.256348,4343.589844,3792.307617
4403.07666,3896.410156,4248.205078,4162.05127,4110.256348,4570.769043,4116.410156,4426.153809,3646.666504,4156.410156,4669.743652,4070.769043,4348.717773,3795.897461
4405.12793,3896.923096,4250.769043,4166.153809,4112.820313,4565.641113,4113.846191,4422.05127,3637.94873,4134.358887,4656.410156,4074.358887,4346.666504,3797.435791
4405.641113,3900,4257.436035,4170.256348,4115.897461,4563.07666,4111.794922,4424.102539,3635.384521,4127.692383,4654.871582,4084.615234,4343.589844,3802.05127
4411.281738,3907.179443,4264.615234,4172.820313,4115.897461,4571.281738,4109.743652,4428.717773,3651.281982,4159.487305,4673.846191,4089.230713,4353.846191,3803.5896
4409.230469,3906.666504,4260,4174.358887,4120,4562.563965,4123.07666,4442.563965,3658.974365,4167.692383,4669.230469,4090.769043,4372.820313,3801.53833
4405.641113,3896.410156,4255.897461,4171.794922,4120,4568.205078,4121.538574,4437.94873,3640.512695,4136.922852,4651.794922,4083.076904,4363.589844,3794.871582
4407.692383,3897.94873,4259.487305,4172.820313,4119.487305,4571.794922,4103.07666,4425.12793,3637.94873,4137.94873,4657.94873,4077.94873,4352.307617,3791.794678
4410.256348,3905.128174,4257.436035,4175.897461,4123.07666,4564.102539,4104.102539,4423.07666,3651.281982,4157.94873,4668.205078,4080,4363.07666,3793.845947
4410.256348,3900.512695,4253.333008,4171.794922,4124.102539,4569.230469,4112.820313,4414.871582,3643.5896,4145.12793,4660,4075.897217,4362.563965,3792.307617
4406.153809,3895.384521,4251.281738,4164.615234,4117.436035,4562.05127,4108.717773,4409.230469,3634.358887,4131.794922,4649.230469,4072.820313,4352.307617,3790.769043
4401.538574,3893.845947,4248.717773,4164.615234,4109.230469,4560,4096.410156,4408.205078,3643.5896,4142.05127,4657.94873,4069.230713,4344.102539,3788.205078
4397.94873,3893.333252,4243.589844,4164.102539,4110.256348,4563.589844,4093.333252,4402.563965,3647.692139,4147.179199,4663.589844,4065.128174,4346.666504,3783.076904
4397.94873,3893.845947,4245.12793,4160.512695,4112.820313,4562.05127,4104.102539,4412.307617,3637.435791,4127.692383,4654.358887,4072.307617,4364.102539,3787.692139
4403.589844,3892.820313,4255.897461,4161.025391,4111.794922,4564.615234,4116.410156,4433.333008,3633.845947,4120.512695,4654.871582,4084.615234,4367.692383,3800
4409.230469,3894.358887,4261.538574,4167.692383,4118.461426,4559.487305,4114.358887,4428.205078,3640,4142.05127,4663.07666,4087.179443,4354.871582,3807.692139
4414.871582,3901.025635,4263.07666,4173.333008,4123.589844,4561.538574,4098.974121,4405.641113,3643.5896,4156.922852,4667.179199,4084.102539,4352.820313,3808.205078
4416.410156,3905.640869,4263.07666,4170.256348,4120,4562.563965,4096.922852,4410.769043,3644.615234,4152.307617,4664.615234,4088.717773,4366.153809,3809.743408
4411.281738,3901.025635,4261.025391,4168.205078,4117.94873,4556.922852,4103.07666,4425.641113,3633.845947,4136.922852,4655.897461,4090.256348,4367.179199,3808.717773
4407.692383,3895.897461,4263.589844,4174.871582,4119.487305,4562.563965,4100,4420,3618.974365,4127.692383,4653.333008,4086.153809,4362.563965,3803.5896
4409.230469,3901.025635,4263.07666,4180,4121.025391,4561.025391,4105.12793,4421.025391,3625.640869,4145.12793,4659.487305,4087.692139,4376.410156,3805.640869
4410.256348,3902.563965,4261.025391,4173.846191,4120,4557.94873,4111.281738,4429.743652,3642.563965,4168.205078,4668.205078,4087.692139,4384.102539,3803.5896
4409.743652,3895.897461,4263.07666,4167.692383,4120,4558.974121,4107.692383,4430.256348,3647.692139,4171.281738,4671.281738,4084.615234,4369.743652,3797.435791
4409.743652,3893.845947,4265.12793,4170.256348,4124.615234,4553.846191,4108.205078,4435.384277,3641.53833,4160,4664.102539,4090.769043,4358.461426,3801.53833
4412.820313,3900.512695,4265.641113,4174.871582,4125.641113,4556.922852,4108.717773,4438.461426,3639.487061,4155.897461,4662.563965,4098.461426,4364.102539,3807.179443
4416.410156,3909.230713,4269.743652,4179.487305,4126.666504,4557.94873,4108.717773,4433.846191,3648.717773,4161.538574,4668.717773,4104.615234,4376.410156,3813.845947
4417.435547,3910.256348,4275.897461,4182.563965,4131.794922,4556.410156,4109.230469,4428.205078,3650.256348,4160.512695,4667.179199,4112.307617,4383.589844,3822.563965
4418.974121,3909.743408,4280,4183.07666,4134.358887,4557.94873,4110.769043,4433.846191,3646.153809,4162.563965,4667.179199,4119.487305,4391.794922,3829.230713
4419.487305,3910.769043,4280,4184.615234,4133.846191,4560,4115.384277,4448.717773,3657.435791,4185.641113,4682.563965,4123.589844,4408.205078,3835.384521
4418.461426,3911.281982,4278.974121,4186.666504,4137.436035,4561.538574,4121.538574,4452.820313,3674.358887,4206.666504,4692.307617,4122.05127,4416.410156,3836.410156
4417.435547,3911.794678,4281.025391,4185.12793,4140.512695,4557.435547,4121.025391,4447.179199,3673.845947,4205.641113,4683.589844,4123.589844,4411.794922,3835.384521
4419.487305,3910.769043,4284.102539,4184.615234,4136.922852,4561.538574,4115.897461,4437.94873,3662.563965,4194.871582,4677.94873,4123.589844,4401.538574,3834.358887
4418.461426,3909.230713,4283.07666,4184.102539,4133.846191,4562.563965,4124.615234,4434.871582,3656.410156,4186.153809,4674.871582,4115.384277,4397.94873,3829.743408
4415.897461,3911.281982,4283.07666,4177.94873,4136.410156,4556.922852,4134.871582,4445.12793,3660.512695,4186.666504,4675.384277,4112.307617,4408.717773,3825.128174
4416.922852,3912.820313,4285.12793,4174.358887,4138.461426,4561.025391,4123.07666,4453.333008,3672.307617,4200.512695,4688.717773,4114.358887,4411.281738,3822.05127
4416.922852,3910.256348,4282.563965,4175.897461,4142.05127,4557.435547,4109.743652,4449.743652,3673.333252,4200,4689.230469,4115.897461,4402.05127,3824.615234
4417.435547,3910.769043,4282.563965,4174.358887,4141.025391,4557.435547,4114.358887,4444.615234,3661.025635,4185.12793,4676.410156,4116.922852,4401.025391,3830.256348
4418.974121,3913.333252,4286.666504,4171.794922,4135.897461,4558.974121,4121.025391,4446.666504,3661.53833,4191.794922,4674.871582,4117.94873,4406.666504,3834.871582
4417.94873,3911.281982,4285.12793,4175.384277,4136.410156,4549.743652,4116.922852,4446.153809,3672.820313,4207.692383,4682.563965,4119.487305,4410.256348,3838.974365
4417.94873,3907.692139,4283.07666,4174.871582,4137.436035,4555.384277,4118.974121,4447.179199,3673.333252,4205.641113,4687.692383,4118.461426,4409.230469,3840
4415.897461,3909.230713,4284.615234,4168.205078,4135.384277,4558.461426,4132.820313,4450.769043,3665.640869,4191.281738,4680.512695,4115.384277,4413.846191,3838.461426
4413.846191,3913.845947,4287.692383,4171.281738,4135.897461,4551.794922,4138.461426,4442.05127,3665.128174,4191.281738,4676.922852,4116.410156,4407.179199,3840
4418.974121,3913.845947,4291.281738,4168.717773,4135.897461,4554.871582,4132.820313,4442.05127,3675.384521,4213.333008,4694.871582,4119.487305,4391.281738,3843.076904
4418.974121,3911.794678,4287.179199,4135.897461,4134.871582,4550.256348,4129.230469,4458.461426,3675.897461,4214.871582,4697.435547,4122.05127,4403.589844,3844.102539
4417.94873,3910.256348,4285.641113,4107.179199,4133.333008,4557.94873,4130.769043,4450.769043,3658.461426,4180.512695,4675.897461,4115.384277,4415.384277,3840
4420.512695,3914.358887,4289.230469,4109.743652,4134.871582,4560,4133.846191,4432.307617,3650.769043,4171.794922,4666.666504,4108.205078,4404.615234,3836.410156
4420.512695,3915.384521,4289.230469,4120.512695,4138.974121,4541.538574,4134.358887,4438.974121,3657.435791,4190.769043,4672.820313,4110.769043,4400.512695,3837.94873
4421.025391,3909.743408,4290.769043,4126.153809,4135.897461,4550.256348,4136.410156,4448.205078,3658.461426,4193.846191,4677.435547,4111.794922,4401.538574,3835.897461
4420.512695,3913.845947,4289.743652,4133.846191,4135.384277,4553.333008,4144.102539,4450.769043,3657.94873,4192.820313,4674.358887,4108.717773,4400.512695,3835.897461
4421.025391,3916.923096,4287.692383,4141.538574,4137.94873,4548.717773,4146.153809,4446.666504,3654.871826,4194.358887,4672.820313,4101.025391,4389.230469,3833.333252
4422.563965,3910.256348,4291.281738,4148.717773,4120,4552.820313,4152.307617,4441.025391,3650.769043,4189.230469,4673.333008,4093.845947,4383.589844,3828.205078
4422.563965,3906.666504,4294.358887,4154.358887,4078.461426,4548.205078,4160.512695,4445.641113,3648.205078,4181.538574,4664.615234,4102.563965,4398.974121,3831.794678
4426.666504,3907.179443,4295.897461,4155.897461,4042.563965,4548.205078,4144.102539,4445.12793,3645.128174,4169.743652,4660,4114.358887,4401.025391,3837.94873
4427.692383,3908.205078,4293.846191,4156.410156,4042.05127,4545.12793,4133.846191,4443.589844,3645.640869,4166.153809,4663.07666,4110.769043,4387.179199,3837.94873
4426.153809,3907.179443,4300,4160.512695,4070.256348,4548.717773,4151.794922,4458.461426,3655.897461,4184.102539,4673.333008,4105.641113,4394.358887,3834.871582
4428.205078,3909.743408,4318.974121,4166.153809,4108.717773,4554.871582,4168.205078,4481.025391,3673.845947,4216.922852,4695.384277,4118.974121,4425.12793,3842.563965
4432.820313,3914.871582,4330.256348,4167.692383,4131.281738,4549.230469,4165.12793,4490.769043,3676.923096,4234.358887,4707.179199,4132.820313,4441.538574,3852.820313
4434.871582,3913.845947,4328.205078,4172.820313,4137.436035,4557.435547,4166.666504,4480,3662.563965,4228.717773,4703.07666,4125.641113,4431.281738,3849.743408
4437.435547,3915.897461,4328.717773,4180.512695,4150.256348,4561.025391,4188.717773,4476.410156,3660,4229.230469,4702.563965,4126.666504,4430.769043,3852.820313
4440.512695,3922.563965,4331.794922,4178.974121,4157.436035,4557.435547,4190.256348,4478.461426,3669.743408,4236.922852,4709.230469,4142.05127,4442.05127,3863.5896
4436.410156,3921.025635,4327.692383,4174.871582,4152.820313,4555.384277,4165.641113,4472.307617,3670.256348,4235.384277,4705.12793,4143.07666,4450.256348,3863.5896
4431.281738,3913.845947,4318.461426,4178.461426,4152.307617,4549.743652,4160,4467.179199,3660.512695,4226.666504,4695.384277,4138.974121,4453.333008,3861.53833
4435.384277,3911.281982,4313.846191,4181.025391,4154.871582,4556.922852,4167.692383,4465.641113,3654.871826,4225.12793,4697.94873,4140,4440,3862.05127
4439.487305,3916.410156,4313.333008,4177.94873,4157.436035,4555.897461,4174.358887,4473.333008,3656.410156,4225.641113,4696.922852,4142.05127,4436.922852,3865.128174
4437.94873,3920.512695,4313.333008,4182.05127,4162.05127,4550.256348,4188.205078,4483.589844,3656.923096,4221.025391,4691.794922,4144.102539,4453.846191,3867.179443
4440.512695,3917.94873,4316.922852,4188.717773,4163.589844,4560.512695,4192.307617,4481.538574,3660,4225.641113,4702.563965,4141.538574,4455.384277,3861.53833
4446.153809,3921.025635,4317.94873,4185.641113,4166.153809,4553.846191,4183.07666,4482.563965,3675.384521,4251.794922,4716.922852,4142.05127,4451.794922,3862.563965
4445.641113,3921.53833,4315.897461,4187.692383,4169.743652,4545.641113,4183.07666,4490.769043,3690.256348,4262.563965,4716.922852,4143.589844,4450.256348,3864.615234
4443.589844,3915.897461,4317.436035,4197.436035,4166.153809,4557.435547,4188.717773,4485.12793,3687.692139,4236.922852,4706.153809,4141.538574,4437.94873,3856.410156
4442.563965,3918.461426,4317.94873,4199.487305,4165.641113,4548.205078,4189.743652,4478.461426,3677.435791,4223.07666,4697.435547,4143.589844,4441.025391,3857.94873
4442.05127,3921.025635,4316.922852,4195.384277,4169.743652,4536.922852,4180.512695,4473.333008,3670.769043,4226.666504,4692.820313,4142.563965,4454.871582,3861.53833
4444.102539,3916.410156,4320.512695,4197.436035,4171.281738,4548.205078,4167.692383,4461.025391,3673.845947,4229.230469,4697.94873,4142.563965,4453.846191,3860.512695
4448.205078,3918.974365,4326.666504,4205.641113,4172.307617,4553.333008,4174.358887,4462.05127,3685.128174,4238.974121,4707.692383,4153.846191,4457.435547,3868.205078
4452.307617,3929.230713,4329.230469,4212.820313,4174.358887,4548.717773,4182.05127,4466.666504,3688.717773,4243.589844,4706.666504,4160.512695,4467.692383,3875.384521
4451.794922,3930.256348,4330.256348,4210.256348,4174.358887,4544.615234,4173.333008,4457.435547,3683.5896,4233.846191,4701.025391,4158.461426,4469.230469,3874.358887
4447.179199,3920,4328.717773,4206.153809,4171.794922,4543.07666,4165.641113,4451.794922,3681.53833,4233.333008,4702.05127,4159.487305,4468.205078,3871.281982
4447.179199,3915.384521,4325.641113,4209.230469,4171.794922,4546.153809,4166.666504,4458.974121,3690.256348,4244.615234,4706.666504,4163.589844,4469.230469,3873.333252
4450.256348,3922.05127,4327.179199,4209.743652,4172.307617,4547.692383,4167.692383,4465.641113,3695.384521,4245.641113,4706.666504,4164.615234,4464.615234,3877.435791
4450.769043,3927.179443,4330.769043,4208.205078,4172.820313,4542.563965,4172.820313,4472.820313,3691.794678,4243.589844,4703.07666,4164.102539,4463.07666,3877.435791
4449.743652,3923.5896,4332.307617,4209.743652,4173.846191,4543.07666,4181.538574,4482.563965,3692.820313,4246.666504,4703.589844,4164.615234,4469.743652,3874.871582
4448.717773,3920,4330.769043,4210.769043,4173.333008,4549.743652,4182.563965,4486.153809,3696.410156,4242.563965,4703.589844,4162.05127,4469.230469,3870.769043
4450.769043,3921.025635,4332.307617,4213.333008,4177.436035,4547.179199,4182.05127,4488.717773,3695.384521,4239.487305,4702.563965,4160,4462.563965,3871.794678
4454.358887,3924.102539,4336.410156,4214.871582,4182.05127,4547.179199,4181.025391,4486.666504,3698.461426,4249.743652,4709.743652,4161.538574,4463.589844,3874.358887
4453.846191,3925.640869,4334.871582,4209.743652,4177.436035,4546.666504,4178.974121,4478.974121,3705.640869,4261.025391,4715.384277,4166.153809,4475.384277,3879.487061
4452.820313,3923.5896,4332.820313,4212.820313,4175.897461,4541.025391,4180.512695,4477.435547,3698.974365,4249.230469,4708.205078,4169.743652,4484.102539,3885.640869
4456.410156,3924.102539,4338.974121,4219.487305,4183.589844,4546.666504,4179.487305,4481.538574,3690.769043,4233.846191,4700.512695,4172.307617,4476.410156,3886.153809
4457.94873,3928.205078,4342.05127,4215.897461,4186.666504,4545.12793,4180.512695,4484.102539,3700.512695,4249.230469,4709.743652,4175.384277,4472.820313,3885.640869
4456.410156,3927.179443,4339.487305,4217.94873,4184.615234,4542.05127,4188.717773,4480.512695,3705.640869,4262.05127,4714.871582,4172.820313,4474.358887,3882.563965
4457.94873,3927.179443,4340.512695,4221.025391,4187.692383,4546.666504,4192.307617,4478.461426,3699.487061,4247.179199,4706.666504,4167.692383,4476.922852,3878.974365
4457.435547,3926.666504,4341.538574,4217.436035,4188.205078,4544.615234,4188.205078,4487.179199,3702.05127,4243.589844,4705.641113,4173.333008,4484.615234,3882.05127
4452.307617,3915.897461,4335.897461,4217.436035,4180.512695,4545.641113,4186.153809,4492.820313,3702.563965,4249.743652,4711.281738,4171.281738,4473.333008,3877.94873
4447.692383,3907.692139,4329.230469,4215.897461,4177.436035,4544.102539,4190.256348,4487.692383,3697.435791,4242.05127,4707.179199,4160.512695,4456.922852,3870.256348
4448.717773,3911.281982,4333.846191,4211.794922,4179.487305,4537.94873,4189.743652,4487.692383,3708.717773,4249.743652,4710.256348,4166.153809,4468.717773,3876.410156
4452.820313,3914.358887,4337.436035,4213.333008,4181.538574,4538.461426,4180,4489.230469,3717.94873,4267.179199,4722.563965,4173.333008,4484.615234,3882.563965
4453.333008,3913.333252,4331.794922,4214.358887,4182.05127,4535.897461,4177.94873,4485.641113,3708.205078,4261.025391,4717.94873,4165.641113,4480,3877.435791
4456.410156,3914.871582,4336.410156,4215.897461,4183.589844,4542.563965,4184.615234,4490.256348,3710.769043,4256.922852,4717.94873,4164.615234,4476.922852,3875.384521
4462.05127,3920.512695,4347.692383,4224.102539,4191.794922,4543.589844,4193.846191,4504.102539,3727.179443,4273.846191,4730.256348,4177.94873,4489.230469,3881.53833
4463.589844,3923.5896,4345.641113,4225.641113,4198.461426,4537.435547,4202.05127,4506.153809,3728.717773,4278.974121,4727.179199,4179.487305,4491.794922,3882.05127
4461.538574,3920,4338.461426,4223.589844,4193.846191,4542.563965,4198.461426,4500,3723.5896,4273.846191,4724.102539,4169.743652,4484.102539,3875.384521
4456.922852,3917.94873,4334.871582,4225.641113,4190.769043,4540.512695,4186.666504,4498.974121,3725.640869,4273.846191,4725.12793,4170.769043,4486.153809,3875.897461
4454.871582,3917.435791,4333.846191,4223.589844,4192.307617,4545.641113,4187.692383,4489.743652,3716.923096,4263.589844,4715.897461,4170.769043,4479.487305,3873.333252
4453.846191,3917.435791,4332.820313,4220,4191.281738,4543.589844,4197.94873,4478.974121,3704.615234,4255.897461,4707.179199,4163.07666,4466.153809,3864.102539
4454.358887,3918.461426,4331.281738,4219.487305,4190.769043,4528.205078,4188.717773,4481.025391,3710.769043,4264.102539,4706.666504,4162.563965,4469.743652,3866.153809
4461.025391,3915.897461,4338.974121,4221.025391,4189.743652,4543.07666,4172.307617,4478.974121,3720,4264.102539,4712.820313,4170.769043,4480.512695,3875.897461
4461.025391,3916.410156,4342.563965,4220,4190.769043,4538.974121,4177.94873,4477.94873,3719.487061,4264.102539,4713.846191,4181.025391,4488.205078,3882.563965
4458.461426,3920.512695,4340.512695,4220.512695,4192.307617,4526.153809,4185.12793,4481.538574,3715.384521,4267.179199,4710.256348,4185.641113,4492.307617,3882.563965
4467.179199,3926.153809,4347.179199,4224.102539,4195.897461,4540,4186.153809,4480,3717.435791,4264.615234,4713.846191,4185.12793,4494.871582,3886.153809
4471.281738,3929.743408,4349.230469,4224.615234,4198.461426,4537.435547,4193.333008,4485.641113,3718.974365,4266.666504,4715.897461,4190.256348,4490.769043,3891.794678
4465.12793,3920,4346.153809,4220.512695,4190.256348,4536.922852,4189.743652,4488.717773,3723.5896,4280.512695,4722.563965,4192.307617,4475.897461,3888.717773
4459.487305,3915.384521,4347.692383,4217.94873,4186.153809,4538.974121,4182.05127,4484.102539,3733.333252,4289.230469,4727.692383,4190.256348,4481.025391,3886.666504
4459.487305,3920.512695,4346.153809,4221.025391,4189.743652,4535.384277,4180,4471.281738,3720,4271.281738,4712.307617,4182.563965,4490.256348,3883.076904
4460.512695,3920.512695,4342.05127,4218.461426,4186.666504,4538.974121,4176.410156,4461.025391,3702.563965,4252.820313,4701.025391,4172.307617,4478.461426,3874.871582
4458.974121,3921.025635,4343.589844,4215.897461,4189.230469,4534.871582,4180.512695,4472.820313,3707.179443,4253.846191,4703.589844,4176.410156,4486.153809,3881.53833
4460.512695,3923.076904,4346.153809,4218.974121,4195.897461,4538.461426,4187.179199,4481.538574,3709.743408,4253.333008,4704.615234,4180,4493.846191,3886.153809
4460.512695,3925.640869,4345.12793,4216.922852,4193.333008,4539.487305,4190.256348,4484.615234,3709.743408,4257.436035,4705.12793,4177.436035,4478.974121,3878.461426
4459.487305,3926.153809,4342.05127,4215.897461,4190.769043,4534.358887,4188.205078,4493.333008,3719.487061,4269.743652,4714.871582,4175.384277,4472.820313,3873.333252
4465.641113,3926.666504,4342.05127,4217.436035,4193.846191,4538.974121,4182.05127,4488.205078,3721.53833,4268.205078,4717.435547,4172.820313,4469.230469,3873.845947
4470.256348,3927.692139,4343.589844,4215.897461,4194.358887,4536.410156,4191.794922,4487.692383,3718.974365,4260.512695,4706.153809,4177.94873,4467.692383,3882.563965
4469.743652,3925.128174,4348.717773,4217.94873,4195.384277,4538.974121,4205.641113,4505.12793,3731.794678,4272.820313,4712.820313,4186.666504,4474.358887,3886.666504
4469.743652,3927.179443,4354.358887,4221.025391,4198.461426,4541.538574,4202.563965,4508.717773,3743.5896,4281.538574,4724.102539,4189.230469,4486.666504,3884.615234
4471.794922,3932.307617,4354.358887,4218.974121,4200,4534.871582,4200,4497.94873,3734.358887,4265.12793,4712.307617,4190.256348,4499.487305,3889.743408
4473.846191,3932.307617,4356.922852,4220.512695,4200,4537.94873,4208.205078,4502.05127,3732.307617,4263.07666,4709.743652,4194.358887,4500.512695,3893.845947
4472.307617,3929.743408,4358.974121,4222.563965,4201.025391,4538.974121,4208.717773,4505.641113,3748.205078,4291.281738,4725.12793,4196.922852,4495.384277,3893.333252
4468.717773,3927.692139,4353.846191,4218.461426,4199.487305,4541.538574,4195.897461,4483.589844,3744.102539,4290.769043,4722.563965,4188.205078,4486.153809,3887.692139
4471.794922,3932.307617,4353.846191,4224.102539,4205.12793,4541.025391,4203.07666,4477.435547,3727.692139,4268.717773,4706.666504,4186.666504,4488.717773,3889.743408
4477.94873,3941.53833,4361.025391,4230.256348,4212.820313,4535.897461,4223.07666,4501.025391,3727.692139,4267.692383,4707.692383,4199.487305,4497.435547,3900.512695
4478.461426,3935.897461,4364.102539,4228.205078,4208.205078,4542.05127,4217.436035,4504.615234,3738.974365,4284.102539,4724.615234,4201.025391,4492.820313,3900
4475.384277,3928.717773,4360,4226.153809,4206.666504,4538.974121,4206.153809,4500.512695,3748.205078,4292.307617,4727.692383,4200,4491.281738,3895.897461
4474.358887,3933.845947,4356.410156,4225.641113,4209.743652,4536.922852,4205.641113,4504.615234,3731.794678,4267.692383,4709.743652,4201.025391,4495.897461,3891.281982
4473.333008,3937.435791,4357.94873,4223.589844,4208.717773,4539.487305,4208.717773,4497.94873,3714.871582,4252.307617,4707.692383,4194.358887,4494.358887,3885.640869
4470.769043,3931.794678,4357.435547,4221.025391,4203.589844,4534.358887,4210.769043,4495.384277,3737.435791,4277.94873,4727.692383,4193.333008,4487.692383,3888.205078
4472.307617,3925.128174,4355.384277,4218.461426,4197.94873,4538.974121,4205.12793,4499.487305,3761.025635,4291.281738,4734.358887,4194.871582,4483.589844,3887.692139
4473.846191,3928.205078,4353.333008,4219.487305,4204.102539,4537.94873,4208.717773,4498.461426,3753.333252,4271.281738,4722.563965,4191.281738,4488.205078,3884.615234
4473.333008,3933.333252,4355.384277,4224.102539,4211.281738,4534.871582,4221.538574,4496.410156,3748.717773,4262.563965,4717.435547,4192.820313,4495.897461,3886.666504
4472.307617,3931.794678,4357.435547,4220.512695,4206.153809,4538.974121,4214.358887,4496.922852,3757.435791,4272.307617,4721.538574,4201.538574,4496.922852,3891.281982
4469.230469,3925.128174,4353.846191,4214.871582,4201.538574,4533.333008,4198.461426,4505.641113,3760.512695,4277.94873,4721.025391,4206.666504,4493.846191,3894.871582
4467.692383,3921.53833,4352.307617,4217.94873,4201.538574,4536.922852,4197.94873,4508.717773,3763.5896,4282.05127,4726.153809,4206.153809,4488.205078,3892.820313
4465.12793,3926.153809,4352.820313,4216.922852,4202.05127,4538.461426,4207.179199,4501.538574,3767.179443,4287.692383,4728.205078,4203.589844,4491.281738,3886.153809
4466.153809,3931.281982,4353.333008,4216.410156,4205.12793,4534.358887,4217.436035,4498.461426,3762.563965,4285.641113,4722.05127,4201.025391,4493.846191,3883.5896
4471.794922,3930.256348,4356.922852,4223.07666,4209.743652,4540.512695,4226.153809,4506.666504,3761.53833,4275.384277,4722.563965,4198.974121,4483.07666,3884.102539
4473.333008,3928.205078,4358.461426,4225.641113,4213.333008,4538.974121,4227.692383,4515.897461,3769.230713,4279.487305,4728.205078,4201.538574,4491.794922,3885.128174
4475.897461,3928.717773,4361.025391,4223.589844,4213.846191,4542.05127,4224.615234,4510.769043,3773.845947,4297.94873,4737.435547,4204.615234,4502.563965,3887.179443
4476.410156,3929.743408,4361.025391,4225.641113,4210.256348,4541.025391,4225.641113,4504.102539,3767.179443,4292.820313,4733.333008,4206.153809,4494.358887,3889.743408
4471.794922,3926.153809,4358.974121,4225.12793,4208.205078,4530.769043,4226.666504,4506.153809,3753.333252,4265.12793,4712.307617,4207.179199,4488.205078,3889.743408
4474.358887,3924.102539,4361.025391,4223.589844,4207.692383,4540.512695,4223.589844,4510.256348,3750.256348,4262.05127,4714.358887,4205.12793,4486.666504,3887.179443
4475.897461,3928.205078,4357.94873,4224.102539,4206.153809,4538.461426,4216.410156,4507.692383,3761.025635,4286.666504,4727.692383,4204.102539,4487.692383,3888.717773
4473.333008,3929.230713,4354.871582,4222.05127,4203.07666,4528.717773,4209.230469,4495.384277,3757.94873,4283.589844,4720,4202.563965,4490.769043,3888.717773
4478.974121,3930.769043,4362.05127,4223.07666,4208.205078,4534.358887,4215.384277,4490.769043,3749.230713,4269.230469,4717.94873,4206.153809,4502.563965,3890.769043
4485.641113,3936.410156,4366.666504,4232.307617,4217.436035,4532.820313,4226.153809,4502.05127,3760,4287.692383,4730.256348,4215.384277,4515.384277,3899.487061
4484.615234,3932.307617,4367.692383,4234.358887,4214.358887,4535.897461,4227.179199,4507.179199,3768.205078,4295.384277,4729.743652,4218.974121,4509.743652,3901.53833
4484.615234,3929.230713,4371.794922,4227.179199,4209.230469,4533.846191,4229.230469,4510.256348,3767.692139,4280,4724.615234,4222.563965,4505.641113,3904.102539
4484.615234,3933.333252,4371.794922,4230.256348,4213.846191,4532.820313,4238.461426,4517.435547,3771.794678,4287.179199,4730.256348,4223.589844,4509.743652,3905.128174
4480,3931.794678,4366.666504,4234.358887,4214.358887,4538.461426,4243.589844,4516.410156,3772.820313,4300.512695,4732.820313,4216.410156,4503.07666,3896.923096
4476.410156,3928.205078,4363.589844,4226.153809,4211.281738,4530.769043,4237.94873,4508.717773,3764.102539,4288.205078,4722.05127,4214.871582,4501.025391,3894.358887
4479.487305,3929.743408,4364.102539,4223.589844,4211.281738,4532.820313,4227.692383,4501.538574,3753.333252,4269.230469,4711.794922,4210.256348,4503.589844,3894.358887
4481.025391,3932.820313,4363.589844,4229.230469,4214.358887,4536.410156,4231.281738,4506.666504,3754.358887,4275.897461,4714.358887,4203.07666,4502.05127,3891.281982
4480,3932.820313,4365.641113,4227.692383,4213.333008,4534.358887,4242.563965,4515.384277,3764.615234,4292.820313,4722.563965,4205.12793,4500.512695,3889.743408
4480,3935.384521,4367.692383,4225.12793,4211.281738,4533.846191,4238.974121,4507.692383,3766.153809,4293.846191,4723.589844,4209.230469,4502.05127,3893.845947
4476.410156,3935.897461,4362.563965,4226.666504,4214.358887,4527.692383,4233.846191,4494.871582,3751.281982,4275.897461,4708.717773,4206.666504,4500,3895.897461
4473.333008,3928.205078,4361.025391,4228.205078,4214.871582,4535.384277,4235.384277,4484.102539,3736.410156,4256.410156,4696.922852,4200.512695,4486.153809,3885.128174
4472.307617,3926.666504,4363.07666,4227.692383,4210.769043,4532.307617,4234.358887,4482.563965,3743.076904,4261.025391,4701.538574,4201.025391,4494.358887,3881.53833
4478.461426,3931.794678,4364.615234,4224.615234,4209.743652,4525.12793,4229.230469,4492.820313,3760,4280,4712.820313,4207.179199,4518.974121,3891.794678
4486.153809,3932.820313,4370.769043,4224.615234,4213.333008,4532.307617,4228.717773,4499.487305,3764.102539,4285.12793,4721.538574,4209.230469,4516.410156,3895.897461
4485.641113,3930.256348,4374.358887,4229.743652,4217.94873,4530.769043,4237.94873,4501.025391,3759.487061,4278.461426,4716.922852,4211.794922,4504.615234,3895.897461
4486.153809,3930.769043,4376.410156,4234.871582,4220.512695,4533.333008,4245.12793,4507.692383,3763.5896,4284.102539,4716.410156,4213.846191,4507.179199,3896.923096
4489.743652,3936.410156,4379.487305,4235.897461,4224.102539,4533.846191,4251.794922,4521.538574,3779.487061,4308.205078,4733.846191,4215.897461,4517.94873,3902.05127
4488.205078,3938.461426,4379.487305,4238.974121,4225.641113,4533.333008,4257.436035,4522.563965,3782.05127,4312.820313,4739.487305,4216.410156,4518.974121,3903.5896
4486.666504,3932.820313,4376.922852,4237.436035,4223.07666,4540,4256.922852,4508.205078,3760,4282.563965,4718.974121,4207.179199,4505.641113,3891.794678
4489.230469,3931.281982,4376.410156,4230.769043,4222.563965,4533.333008,4253.846191,4508.205078,3749.743408,4273.846191,4709.230469,4202.563965,4503.07666,3888.205078
4493.333008,3931.281982,4378.461426,4233.846191,4223.07666,4533.333008,4242.05127,4507.179199,3761.53833,4297.436035,4725.641113,4206.153809,4504.102539,3893.845947
4495.897461,3931.794678,4377.435547,4241.025391,4224.102539,4534.871582,4238.974121,4496.922852,3766.666504,4305.641113,4730.769043,4209.230469,4500,3894.358887
4497.435547,3933.845947,4377.94873,4240.512695,4228.205078,4531.281738,4254.871582,4500.512695,3753.333252,4286.153809,4713.846191,4209.230469,4507.692383,3891.281982
4497.435547,3931.794678,4381.538574,4240.512695,4229.230469,4537.435547,4257.436035,4505.641113,3749.230713,4276.410156,4713.333008,4205.641113,4518.974121,3894.358887
4496.922852,3931.281982,4380.512695,4240.512695,4227.179199,4533.333008,4249.743652,4507.692383,3760.512695,4293.846191,4727.179199,4205.641113,4523.589844,3902.05127
4500,3933.845947,4378.974121,4238.461426,4224.615234,4533.333008,4257.436035,4511.281738,3768.205078,4307.692383,4736.410156,4208.717773,4518.974121,3903.076904
4502.05127,3934.871582,4384.102539,4239.487305,4224.615234,4534.871582,4265.12793,4511.281738,3771.794678,4306.666504,4736.922852,4212.820313,4520.512695,3904.615234
4499.487305,3932.307617,4386.666504,4241.025391,4227.179199,4525.12793,4263.589844,4520.512695,3775.384521,4302.05127,4731.794922,4215.897461,4531.281738,3909.743408
4502.05127,3925.640869,4384.615234,4235.897461,4222.563965,4533.846191,4267.179199,4534.358887,3778.461426,4306.153809,4738.974121,4217.436035,4530.256348,3909.743408
4502.05127,3924.615234,4381.538574,4231.281738,4218.974121,4535.384277,4269.230469,4527.692383,3783.076904,4311.281738,4745.12793,4220,4526.153809,3909.743408
4497.94873,3926.153809,4380,4233.333008,4220,4527.179199,4256.410156,4505.641113,3777.94873,4302.563965,4734.871582,4214.871582,4521.025391,3906.153809
4497.435547,3927.692139,4385.641113,4238.461426,4222.05127,4532.307617,4254.358887,4505.12793,3770.256348,4301.538574,4729.743652,4208.717773,4510.769043,3902.05127
4494.871582,3927.179443,4388.205078,4238.974121,4226.153809,4531.281738,4273.846191,4524.615234,3773.333252,4310.769043,4733.846191,4214.871582,4511.794922,3907.692139
4493.333008,3926.153809,4387.692383,4236.410156,4226.666504,4533.333008,4274.358887,4520,3777.435791,4313.333008,4738.974121,4219.487305,4526.153809,3912.307617
4494.358887,3928.717773,4390.769043,4237.436035,4224.615234,4531.794922,4264.615234,4512.307617,3778.461426,4316.410156,4742.05127,4220.512695,4538.974121,3916.410156
4491.794922,3929.230713,4393.333008,4238.461426,4224.102539,4527.179199,4273.333008,4522.05127,3773.333252,4314.358887,4736.922852,4222.563965,4533.333008,3920
4490.256348,3927.692139,4393.846191,4238.461426,4226.153809,4532.820313,4287.692383,4529.230469,3766.153809,4301.025391,4730.769043,4221.538574,4526.153809,3916.410156
4491.281738,3928.205078,4393.333008,4239.487305,4226.666504,4533.333008,4290.256348,4532.820313,3769.743408,4296.922852,4731.794922,4221.025391,4532.820313,3915.384521
4491.281738,3927.179443,4395.897461,4238.461426,4223.589844,4538.461426,4284.615234,4534.358887,3781.025635,4308.205078,4741.538574,4220,4526.153809,3913.845947
4490.256348,3929.230713,4394.358887,4237.436035,4225.12793,4533.846191,4286.153809,4534.358887,3784.615234,4314.358887,4744.102539,4215.897461,4514.871582,3911.281982
4486.153809,3928.205078,4386.666504,4232.307617,4223.07666,4524.615234,4284.102539,4524.615234,3772.307617,4303.07666,4734.871582,4210.769043,4517.435547,3908.205078
4485.641113,3920.512695,4384.102539,4225.12793,4216.922852,4527.179199,4270.256348,4511.794922,3760.512695,4292.307617,4728.717773,4209.230469,4521.538574,3905.128174
4487.692383,3921.53833,4389.230469,4222.563965,4217.94873,4523.589844,4269.743652,4515.384277,3764.615234,4295.384277,4725.12793,4214.871582,4523.589844,3912.820313
4489.743652,3929.230713,4394.871582,4225.641113,4220.512695,4529.230469,4284.615234,4521.538574,3764.102539,4287.179199,4721.538574,4214.358887,4510.769043,3916.923096
4489.230469,3930.769043,4392.307617,4224.615234,4221.538574,4534.871582,4290.256348,4514.358887,3754.358887,4274.871582,4721.538574,4211.794922,4503.589844,3910.769043
4488.205078,3931.281982,4389.230469,4221.025391,4225.12793,4528.205078,4288.205078,4506.666504,3757.94873,4285.12793,4724.102539,4215.384277,4514.871582,3910.256348
4490.256348,3936.923096,4393.333008,4224.615234,4225.12793,4533.846191,4290.769043,4511.794922,3763.076904,4288.717773,4723.07666,4211.794922,4509.230469,3909.743408
4485.641113,3940,4389.230469,4227.179199,4225.12793,4530.769043,4288.205078,4515.897461,3757.94873,4280,4714.358887,4204.102539,4500.512695,3903.5896
4482.563965,3935.897461,4381.538574,4224.102539,4226.666504,4530.769043,4282.563965,4510.256348,3761.025635,4288.717773,4719.487305,4202.05127,4504.102539,3898.974365
4486.666504,3934.358887,4384.615234,4219.487305,4225.12793,4532.820313,4289.743652,4514.358887,3767.179443,4290.769043,4724.615234,4206.666504,4510.256348,3905.128174
4484.615234,3936.410156,4383.07666,4218.461426,4222.563965,4523.07666,4300,4525.641113,3753.845947,4271.794922,4709.230469,4209.230469,4512.820313,3906.666504
4481.025391,3931.794678,4373.846191,4219.487305,4222.05127,4529.743652,4300.512695,4515.897461,3747.692139,4276.410156,4711.281738,4200,4506.666504,3892.307617
4481.538574,3927.692139,4371.794922,4212.307617,4222.05127,4532.307617,4307.179199,4512.820313,3770.769043,4310.256348,4735.897461,4199.487305,4505.12793,3893.333252
4483.589844,3932.820313,4378.461426,4208.717773,4219.487305,4530.769043,4313.333008,4527.692383,3785.128174,4321.025391,4742.05127,4210.769043,4512.820313,3908.205078
4486.153809,3940,4379.487305,4212.307617,4221.025391,4532.307617,4303.07666,4523.589844,3773.333252,4304.102539,4730.769043,4210.256348,4520,3909.743408
4485.641113,3938.974365,4374.358887,4215.384277,4228.717773,4530.256348,4306.666504,4517.435547,3763.5896,4288.717773,4720,4207.179199,4520.512695,3906.666504
4482.563965,3929.743408,4377.94873,4214.358887,4228.717773,4540,4324.102539,4524.615234,3761.025635,4280.512695,4720,4210.769043,4516.922852,3906.666504
4481.025391,3931.281982,4381.538574,4211.281738,4225.641113,4535.384277,4319.487305,4531.794922,3761.53833,4287.692383,4727.692383,4217.436035,4522.05127,3911.281982
4484.102539,3937.94873,4380,4211.794922,4227.692383,4529.743652,4301.025391,4533.333008,3772.307617,4309.743652,4740,4221.538574,4529.743652,3915.384521
4487.692383,3937.435791,4385.12793,4211.794922,4232.820313,4533.846191,4308.717773,4538.974121,3791.794678,4333.846191,4753.846191,4222.05127,4531.281738,3914.358887
4485.12793,3938.461426,4387.692383,4214.871582,4233.846191,4531.794922,4328.205078,4544.102539,3797.94873,4341.025391,4756.922852,4220,4532.820313,3910.769043
4484.615234,3938.974365,4387.179199,4219.487305,4230.769043,4536.922852,4325.12793,4534.871582,3783.076904,4321.025391,4744.102539,4218.461426,4531.794922,3909.230713
4486.153809,3936.410156,4389.230469,4216.922852,4232.307617,4534.871582,4321.025391,4530.256348,3776.410156,4306.666504,4732.307617,4222.563965,4530.769043,3913.333252
4485.12793,3931.794678,4386.153809,4210.769043,4233.846191,4530.769043,4326.666504,4535.384277,3788.205078,4314.358887,4736.922852,4219.487305,4527.692383,3910.256348
4481.538574,3930.769043,4377.94873,4211.794922,4232.307617,4533.333008,4325.12793,4537.94873,3790.769043,4315.897461,4737.94873,4210.256348,4516.922852,3901.025635
4476.410156,3930.769043,4377.435547,4212.820313,4230.769043,4533.333008,4329.230469,4541.025391,3781.53833,4310.256348,4730.256348,4212.820313,4509.743652,3904.102539
4480,3933.333252,4383.589844,4211.794922,4228.717773,4542.05127,4335.897461,4539.487305,3777.94873,4316.410156,4737.94873,4217.94873,4514.871582,3911.281982
4482.05127,3933.333252,4382.05127,4213.333008,4230.256348,4536.410156,4334.358887,4541.025391,3783.076904,4325.641113,4746.666504,4216.410156,4520.512695,3911.281982
4478.974121,3923.076904,4381.025391,4210.256348,4232.820313,4529.230469,4337.94873,4556.922852,3786.666504,4324.615234,4744.102539,4216.410156,4516.922852,3908.205078
4482.563965,3921.53833,4386.153809,4206.666504,4231.794922,4538.974121,4338.461426,4565.12793,3790.769043,4328.205078,4747.692383,4222.05127,4517.94873,3910.769043
4485.641113,3932.307617,4384.102539,4210.769043,4231.794922,4534.358887,4327.179199,4554.871582,3795.384521,4338.974121,4751.281738,4227.179199,4531.794922,3918.461426
4484.102539,3933.845947,4382.05127,4210.769043,4231.794922,4533.846191,4321.538574,4548.205078,3795.897461,4335.897461,4748.717773,4223.589844,4534.871582,3918.974365
4482.563965,3931.794678,4382.563965,4208.205078,4232.820313,4537.94873,4331.281738,4556.922852,3798.461426,4334.871582,4750.256348,4217.94873,4528.205078,3913.333252
4485.12793,3933.845947,4376.410156,4208.717773,4235.384277,4532.820313,4334.358887,4562.563965,3798.974365,4341.538574,4749.743652,4215.897461,4529.230469,3908.205078
4487.692383,3930.256348,4376.922852,4210.256348,4234.358887,4538.461426,4328.205078,4561.025391,3797.435791,4332.820313,4748.717773,4216.922852,4526.666504,3908.717773
4488.205078,3931.281982,4386.153809,4209.230469,4233.333008,4538.461426,4336.410156,4565.641113,3802.05127,4327.179199,4750.256348,4220.512695,4525.641113,3916.410156
4489.230469,3936.923096,4388.205078,4209.743652,4233.333008,4537.94873,4335.384277,4556.922852,3797.94873,4331.794922,4748.717773,4216.410156,4516.410156,3912.820313
4489.230469,3934.358887,4380.512695,4209.230469,4231.794922,4538.461426,4329.743652,4541.538574,3782.05127,4326.153809,4741.025391,4208.205078,4500.512695,3902.563965
4489.743652,3932.820313,4377.435547,4208.205078,4231.281738,4530.769043,4340.512695,4544.615234,3776.410156,4311.281738,4732.820313,4211.281738,4512.820313,3906.153809
4496.922852,3934.358887,4387.692383,4211.281738,4232.307617,4537.94873,4337.436035,4550.256348,3788.205078,4317.436035,4744.615234,4222.05127,4541.025391,3918.461426
4502.563965,3938.974365,4396.410156,4213.846191,4237.436035,4536.922852,4324.102539,4555.384277,3803.076904,4338.974121,4763.07666,4231.794922,4553.846191,3927.692139
4504.102539,3945.640869,4397.94873,4218.461426,4244.615234,4533.846191,4326.153809,4560.512695,3804.615234,4341.025391,4763.07666,4233.333008,4545.12793,3928.717773
4507.692383,3951.794678,4404.615234,4224.615234,4248.717773,4542.05127,4340,4563.589844,3808.717773,4347.179199,4766.153809,4233.333008,4540,3927.179443
4508.205078,3955.384521,4406.666504,4227.692383,4250.256348,4540.512695,4347.179199,4572.307617,3819.487061,4367.179199,4772.307617,4236.922852,4541.538574,3929.743408
4505.12793,3951.281982,4398.461426,4223.07666,4245.12793,4545.12793,4340.512695,4571.281738,3811.281982,4354.358887,4762.05127,4225.12793,4525.641113,3920.512695
4500,3948.205078,4390.256348,4213.333008,4239.487305,4541.025391,4329.230469,4560.512695,3799.487061,4333.846191,4752.307617,4212.307617,4513.846191,3909.230713
4495.897461,3949.230713,4390.769043,4214.358887,4239.487305,4533.333008,4318.461426,4551.794922,3801.025635,4336.410156,4751.794922,4213.333008,4513.333008,3910.256348
4501.025391,3950.256348,4394.871582,4225.12793,4243.589844,4541.538574,4330.769043,4549.743652,3793.845947,4327.692383,4745.12793,4214.871582,4510.769043,3913.333252
4505.641113,3952.307617,4393.333008,4227.692383,4248.205078,4541.538574,4350.769043,4554.871582,3776.410156,4307.179199,4731.794922,4212.307617,4520.512695,3912.307617
4505.12793,3953.333252,4392.307617,4220.512695,4245.641113,4543.07666,4331.794922,4549.743652,3775.384521,4307.179199,4740,4211.281738,4530.769043,3912.307617
4504.615234,3953.845947,4393.333008,4218.461426,4238.461426,4540,4306.666504,4543.589844,3791.794678,4324.102539,4757.94873,4218.461426,4528.717773,3919.487061
4507.692383,3955.897461,4393.846191,4221.025391,4238.974121,4535.384277,4317.436035,4555.897461,3807.692139,4345.641113,4767.179199,4226.153809,4524.615234,3925.128174
4514.871582,3961.025635,4399.487305,4225.12793,4244.102539,4544.102539,4330.256348,4567.692383,3814.871582,4356.922852,4769.230469,4224.615234,4524.102539,3924.102539
4514.871582,3963.076904,4400.512695,4225.12793,4241.538574,4539.487305,4324.615234,4567.692383,3797.435791,4325.641113,4744.615234,4225.641113,4522.563965,3927.692139
4509.230469,3956.410156,4396.410156,4221.025391,4235.384277,4540.512695,4321.538574,4560,3776.923096,4295.897461,4726.153809,4228.205078,4511.794922,3928.717773
4508.717773,3957.435791,4398.974121,4220.512695,4238.461426,4542.563965,4326.153809,4559.487305,3793.333252,4327.179199,4749.743652,4231.281738,4526.153809,3928.717773
4508.205078,3962.05127,4398.974121,4224.102539,4241.538574,4537.94873,4334.358887,4568.717773,3811.281982,4350.769043,4764.102539,4232.820313,4549.743652,3927.692139
4503.07666,3959.487061,4394.358887,4218.974121,4235.384277,4545.641113,4341.538574,4569.230469,3796.923096,4329.743652,4750.769043,4224.102539,4530.256348,3917.435791
4498.974121,3958.461426,4391.794922,4212.820313,4236.410156,4544.615234,4334.871582,4565.641113,3794.358887,4331.794922,4747.692383,4217.436035,4506.666504,3912.307617
4501.538574,3960.512695,4392.307617,4217.94873,4241.025391,4543.589844,4318.974121,4562.563965,3805.128174,4351.794922,4756.410156,4218.974121,4514.871582,3913.845947
4505.641113,3963.076904,4394.358887,4218.974121,4239.487305,4543.07666,4315.384277,4562.05127,3806.666504,4349.743652,4758.461426,4227.179199,4531.794922,3918.974365
4501.025391,3964.102539,4392.820313,4216.410156,4238.461426,4535.897461,4323.589844,4561.538574,3800,4335.897461,4751.281738,4228.205078,4531.281738,3921.025635
4497.435547,3961.53833,4390.256348,4217.94873,4237.94873,4543.589844,4329.743652,4549.743652,3789.230713,4324.615234,4744.102539,4216.922852,4511.794922,3912.307617
4498.461426,3962.05127,4391.281738,4217.436035,4241.538574,4543.07666,4333.333008,4547.179199,3786.153809,4327.179199,4744.615234,4218.974121,4514.358887,3915.384521
4498.461426,3962.563965,4393.846191,4216.922852,4241.538574,4537.94873,4327.692383,4547.692383,3784.615234,4324.102539,4745.12793,4229.743652,4530.256348,3924.102539
4496.410156,3960.512695,4392.307617,4217.436035,4236.922852,4540,4323.07666,4538.461426,3780.512695,4316.922852,4742.05127,4223.07666,4516.922852,3918.461426
4498.461426,3962.05127,4388.205078,4215.897461,4239.487305,4537.94873,4331.794922,4539.487305,3786.153809,4330.256348,4743.589844,4215.384277,4508.205078,3914.871582
4506.153809,3965.640869,4393.333008,4219.487305,4245.641113,4544.102539,4332.307617,4548.717773,3798.461426,4348.205078,4758.461426,4221.025391,4529.230469,3921.53833
4508.717773,3968.205078,4400.512695,4226.153809,4248.205078,4541.025391,4328.205078,4556.922852,3807.179443,4354.871582,4767.179199,4232.820313,4550.256348,3930.256348
4510.256348,3970.769043,4398.974121,4223.589844,4246.666504,4537.94873,4336.410156,4562.563965,3803.5896,4350.256348,4761.025391,4236.922852,4550.256348,3934.358887
4515.384277,3975.897217,4400,4224.102539,4247.179199,4543.589844,4343.589844,4564.615234,3801.025635,4345.641113,4758.461426,4234.358887,4542.05127,3933.845947
4516.922852,3976.410156,4403.589844,4227.692383,4250.256348,4537.435547,4342.05127,4565.641113,3808.205078,4354.358887,4764.102539,4237.436035,4541.538574,3938.974365
4514.871582,3971.281982,4404.615234,4225.641113,4248.717773,4543.07666,4338.461426,4563.589844,3812.820313,4364.102539,4769.743652,4240,4542.563965,3942.05127
4510.256348,3972.307617,4403.07666,4224.615234,4245.641113,4543.589844,4338.974121,4559.487305,3810.256348,4361.538574,4766.153809,4238.461426,4545.641113,3940
4510.256348,3976.923096,4400,4226.666504,4247.692383,4536.410156,4346.666504,4560,3805.128174,4346.666504,4756.410156,4235.384277,4543.07666,3938.461426
4514.871582,3975.897217,4401.538574,4225.641113,4247.692383,4543.589844,4357.435547,4566.153809,3800,4333.846191,4754.871582,4229.743652,4531.794922,3936.923096
4511.794922,3973.845947,4401.538574,4223.07666,4244.615234,4540,4353.333008,4565.12793,3797.94873,4338.461426,4758.461426,4230.256348,4534.871582,3935.384521
4508.205078,3974.871582,4400,4215.897461,4245.12793,4538.974121,4326.666504,4547.179199,3800.512695,4350.769043,4760.512695,4231.794922,4534.871582,3933.333252
4512.820313,3978.461426,4400,4187.692383,4247.692383,4538.461426,4319.487305,4542.05127,3800.512695,4349.743652,4760,4228.717773,4523.07666,3932.820313
4513.333008,3980.512695,4401.025391,4155.384277,4246.153809,4535.897461,4337.94873,4556.922852,3798.461426,4339.487305,4758.461426,4229.230469,4526.153809,3933.333252
4510.769043,3978.974365,4400,4148.205078,4245.12793,4541.538574,4334.871582,4554.871582,3796.923096,4334.871582,4759.487305,4229.230469,4540,3931.794678
4509.743652,3981.025635,4394.871582,4158.461426,4245.12793,4538.974121,4319.487305,4542.563965,3792.307617,4335.384277,4752.307617,4225.641113,4547.179199,3931.281982
4508.717773,3982.563965,4393.333008,4167.692383,4242.05127,4541.025391,4330.256348,4545.12793,3788.717773,4337.436035,4749.743652,4218.461426,4538.461426,3926.153809
4506.153809,3983.076904,4391.281738,4172.307617,4240.512695,4541.538574,4345.12793,4549.743652,3791.794678,4337.436035,4755.384277,4216.410156,4530.769043,3920
4504.102539,3984.102539,4388.717773,4180.512695,4244.615234,4538.974121,4336.922852,4545.12793,3786.666504,4322.05127,4745.12793,4219.487305,4527.692383,3919.487061
4506.666504,3985.128174,4392.307617,4189.743652,4249.743652,4546.153809,4337.436035,4547.179199,3781.025635,4316.922852,4740,4219.487305,4521.538574,3920
4509.230469,3988.717773,4394.358887,4196.410156,4250.769043,4543.589844,4348.205078,4560.512695,3794.871582,4340,4755.897461,4218.461426,4524.615234,3922.05127
4508.717773,3991.794678,4391.794922,4202.563965,4247.179199,4544.102539,4336.922852,4560,3806.153809,4353.333008,4766.153809,4221.025391,4530.256348,3922.563965
4508.717773,3993.333252,4389.230469,4203.07666,4247.692383,4543.589844,4324.102539,4554.358887,3807.179443,4351.281738,4764.102539,4229.743652,4529.230469,3930.256348
4512.307617,3992.307617,4392.307617,4200,4250.769043,4540.512695,4327.179199,4560,3815.384521,4357.435547,4768.717773,4237.436035,4531.794922,3937.94873
4516.922852,3989.743408,4396.410156,4206.153809,4249.230469,4546.666504,4331.794922,4559.487305,3821.025635,4362.563965,4775.384277,4236.922852,4540,3935.897461
4513.846191,3990.769043,4392.307617,4213.333008,4251.794922,4544.102539,4338.461426,4555.897461,3814.871582,4356.922852,4767.692383,4234.871582,4541.538574,3934.358887
4510.256348,3990.256348,4390.256348,4206.666504,4250.256348,4542.563965,4338.461426,4551.794922,3802.563965,4342.05127,4756.922852,4229.230469,4525.641113,3930.256348
4508.205078,3989.230713,4401.538574,4204.102539,4245.641113,4546.153809,4332.307617,4544.615234,3789.230713,4328.205078,4750.256348,4220,4508.717773,3918.974365
4505.641113,3990.769043,4413.846191,4213.333008,4249.230469,4544.615234,4337.94873,4542.563965,3784.102539,4327.179199,4747.692383,4216.410156,4508.717773,3913.845947
4505.12793,3987.179443,4416.410156,4213.846191,4250.769043,4548.717773,4342.563965,4544.102539,3785.128174,4322.563965,4747.692383,4218.974121,4516.922852,3920.512695
4501.025391,3982.563965,4410.256348,4209.230469,4243.589844,4548.205078,4338.974121,4547.179199,3780.512695,4306.666504,4741.025391,4220.512695,4522.563965,3925.640869
4501.025391,3985.640869,4406.666504,4214.358887,4240,4545.12793,4334.358887,4547.692383,3780.512695,4312.307617,4741.538574,4215.384277,4515.384277,3921.53833
4509.230469,3987.692139,4410.769043,4218.461426,4244.102539,4549.230469,4330.769043,4546.666504,3797.435791,4345.12793,4761.025391,4216.410156,4509.230469,3922.05127
4510.256348,3984.102539,4410.256348,4214.871582,4249.230469,4546.153809,4328.205078,4549.230469,3814.358887,4362.05127,4771.794922,4227.692383,4526.153809,3932.307617
4507.179199,3986.153809,4407.692383,4216.922852,4250.769043,4550.256348,4324.615234,4548.205078,3815.897461,4356.922852,4769.743652,4229.743652,4536.922852,3934.358887
4513.333008,3993.845947,4412.820313,4223.589844,4251.281738,4550.256348,4334.871582,4549.743652,3815.384521,4361.538574,4771.794922,4228.717773,4531.794922,3934.871582
4516.410156,3993.845947,4412.820313,4224.102539,4249.743652,4544.615234,4338.974121,4554.871582,3809.743408,4361.025391,4769.230469,4235.384277,4527.692383,3938.974365
4513.846191,3989.230713,4406.153809,4221.538574,4247.692383,4548.717773,4321.025391,4549.230469,3799.487061,4343.589844,4763.07666,4234.358887,4531.794922,3936.410156
4515.384277,3990.769043,4401.025391,4221.025391,4250.256348,4545.12793,4316.410156,4545.12793,3798.974365,4342.563965,4763.589844,4231.281738,4540,3936.410156
4517.435547,3990.256348,4397.435547,4221.538574,4248.205078,4547.179199,4322.563965,4543.07666,3801.025635,4349.230469,4764.615234,4233.333008,4526.666504,3938.974365
4515.384277,3988.205078,4389.230469,4222.05127,4246.153809,4546.153809,4316.410156,4536.410156,3796.923096,4340.512695,4756.410156,4231.794922,4505.641113,3936.923096
4514.871582,3988.717773,4381.025391,4220,4251.281738,4536.410156,4312.820313,4532.307617,3794.358887,4333.846191,4748.717773,4226.666504,4509.230469,3932.820313
4517.94873,3988.205078,4382.563965,4220,4250.256348,4540,4313.333008,4531.281738,3795.384521,4337.436035,4753.846191,4227.692383,4524.102539,3933.333252
4518.974121,3990.769043,4385.641113,4222.563965,4247.692383,4539.487305,4307.179199,4533.846191,3796.923096,4337.94873,4757.94873,4237.436035,4535.384277,3943.5896
4523.07666,3995.384521,4389.230469,4225.641113,4253.846191,4541.538574,4318.461426,4546.153809,3800,4337.436035,4759.487305,4240.512695,4531.281738,3949.230713
4526.666504,3995.897217,4394.871582,4226.666504,4257.436035,4544.615234,4339.487305,4566.666504,3810.769043,4347.179199,4768.717773,4239.487305,4525.12793,3946.666504
4521.538574,3992.820313,4387.692383,4222.05127,4252.820313,4537.435547,4318.461426,4567.179199,3805.128174,4340.512695,4763.589844,4234.358887,4524.102539,3946.666504
4518.461426,3989.230713,4380.512695,4223.589844,4249.743652,4541.025391,4281.025391,4536.922852,3786.666504,4324.615234,4755.897461,4221.538574,4510.769043,3947.179443
4518.461426,3993.845947,4382.563965,4227.692383,4253.333008,4537.435547,4291.281738,4526.666504,3791.794678,4333.846191,4759.487305,4221.538574,4503.07666,3955.897461
4519.487305,3996.410156,4385.641113,4226.666504,4254.871582,4539.487305,4315.384277,4538.974121,3804.615234,4344.102539,4766.666504,4229.230469,4513.846191,3963.076904
4520.512695,3992.820313,4382.563965,4225.12793,4252.820313,4546.153809,4305.641113,4540.512695,3808.205078,4344.615234,4772.307617,4227.692383,4515.897461,3960.512695
4514.358887,3995.897217,4374.871582,4227.179199,4252.820313,4532.307617,4296.922852,4538.461426,3805.128174,4343.589844,4760.512695,4221.025391,4505.12793,3960
4513.846191,3998.974365,4376.922852,4229.743652,4251.794922,4542.05127,4311.794922,4537.435547,3788.205078,4328.717773,4749.743652,4212.307617,4497.435547,3954.871582
4515.897461,3998.461426,4378.974121,4228.205078,4253.846191,4542.563965,4313.846191,4534.358887,3774.871582,4321.025391,4754.871582,4208.717773,4506.153809,3947.179443
4510.769043,3997.94873,4371.281738,4225.12793,4254.358887,4526.666504,4288.717773,4530.256348,3776.923096,4318.461426,4749.743652,4210.769043,4508.205078,3947.179443
4509.230469,3998.974365,4367.692383,4220,4249.743652,4535.384277,4276.410156,4525.12793,3778.974365,4304.102539,4739.487305,4209.743652,4490.769043,3949.230713
4505.641113,3997.94873,4362.563965,4216.410156,4250.769043,4535.384277,4287.692383,4527.692383,3775.897461,4301.025391,4737.435547,4204.102539,4485.12793,3942.563965
4505.12793,3993.845947,4361.025391,4217.436035,4255.384277,4535.897461,4285.12793,4529.743652,3773.333252,4308.205078,4742.563965,4200,4490.256348,3933.845947
4512.307617,3997.94873,4368.717773,4221.025391,4261.025391,4537.94873,4278.461426,4535.384277,3779.487061,4311.281738,4749.230469,4209.743652,4496.922852,3943.5896
4514.871582,4005.640869,4370.256348,4223.07666,4264.615234,4533.846191,4290.769043,4551.281738,3794.358887,4324.615234,4756.922852,4219.487305,4498.974121,3954.871582
4510.769043,4004.102539,4364.615234,4221.538574,4260,4541.538574,4295.897461,4547.692383,3803.076904,4342.563965,4765.12793,4211.794922,4486.153809,3946.666504
4507.692383,4000,4361.538574,4221.025391,4257.94873,4538.974121,4287.692383,4529.743652,3790.769043,4333.846191,4756.922852,4203.589844,4478.974121,3937.435791
4509.230469,3999.487061,4362.563965,4222.563965,4262.05127,4540.512695,4286.153809,4525.641113,3767.692139,4299.487305,4737.435547,4201.025391,4475.897461,3933.845947
4511.794922,4004.615234,4362.563965,4222.563965,4267.179199,4546.153809,4293.846191,4534.871582,3765.128174,4290.769043,4736.922852,4200.512695,4479.487305,3933.845947
4511.281738,4007.692139,4361.025391,4222.05127,4266.153809,4540,4294.871582,4535.897461,3777.94873,4310.256348,4746.153809,4203.07666,4492.820313,3937.435791
4507.692383,4001.025635,4359.487305,4218.974121,4257.94873,4538.461426,4277.436035,4524.102539,3780,4320.512695,4751.281738,4200.512695,4490.769043,3934.871582
4504.615234,3997.435791,4355.384277,4215.897461,4254.358887,4533.846191,4268.717773,4523.589844,3770.769043,4307.692383,4744.102539,4196.410156,4480,3930.769043
4503.589844,4000.512695,4352.820313,4217.436035,4255.897461,4535.897461,4269.743652,4524.615234,3760,4289.743652,4732.307617,4194.871582,4475.384277,3930.769043
4506.153809,4003.076904,4354.871582,4221.538574,4255.384277,4536.922852,4267.179199,4521.538574,3764.102539,4296.410156,4741.538574,4199.487305,4472.307617,3936.410156
4509.743652,4007.692139,4360,4228.717773,4259.487305,4527.692383,4271.281738,4530.256348,3780.512695,4316.922852,4757.435547,4207.692383,4474.871582,3943.5896
4514.358887,4010.256348,4363.07666,4234.871582,4263.589844,4532.820313,4268.717773,4532.307617,3783.076904,4318.461426,4760.512695,4212.307617,4488.205078,3944.102539
4517.94873,4012.307617,4361.538574,4232.820313,4264.102539,4533.846191,4263.589844,4525.12793,3781.025635,4313.846191,4752.307617,4217.94873,4503.589844,3946.666504
4520.512695,4016.410156,4361.025391,4233.333008,4265.641113,4532.307617,4272.820313,4527.692383,3789.743408,4325.641113,4752.820313,4222.05127,4502.563965,3951.281982
4522.05127,4015.897217,4363.07666,4234.871582,4267.179199,4536.922852,4285.12793,4535.897461,3794.358887,4330.256348,4756.922852,4216.410156,4489.743652,3945.640869
4518.461426,4010.769043,4356.922852,4233.333008,4265.12793,4531.794922,4282.563965,4537.435547,3774.871582,4296.410156,4733.333008,4207.179199,4481.025391,3936.410156
4515.384277,4006.153809,4349.743652,4231.281738,4261.025391,4535.384277,4270.256348,4529.743652,3763.5896,4266.666504,4716.922852,4203.589844,4474.358887,3931.794678
4516.410156,4011.281982,4353.333008,4232.307617,4262.563965,4534.358887,4273.846191,4535.384277,3793.845947,4301.538574,4743.07666,4213.333008,4485.641113,3940
4518.974121,4018.974365,4360,4234.871582,4267.692383,4531.281738,4290.769043,4554.358887,3825.128174,4347.692383,4768.205078,4222.563965,4498.974121,3947.692139
4521.025391,4017.94873,4361.025391,4235.384277,4266.666504,4534.871582,4288.205078,4556.922852,3823.5896,4341.538574,4764.615234,4216.922852,4493.846191,3941.53833
4517.435547,4013.845947,4353.333008,4233.333008,4261.538574,4528.205078,4265.641113,4541.538574,3814.871582,4324.102539,4752.820313,4212.307617,4491.281738,3937.435791
4516.922852,4010.256348,4349.743652,4233.333008,4260.512695,4530.256348,4248.205078,4524.615234,3811.281982,4324.615234,4752.307617,4213.846191,4486.666504,3938.461426
4517.435547,4009.743408,4350.256348,4233.846191,4263.589844,4527.692383,4248.717773,4521.025391,3807.179443,4323.589844,4753.846191,4214.358887,4485.641113,3937.94873
4512.820313,4004.615234,4347.692383,4232.820313,4262.05127,4521.538574,4249.743652,4527.179199,3811.794678,4324.615234,4755.384277,4210.256348,4495.384277,3933.845947
4509.230469,3994.358887,4348.205078,4232.820313,4258.461426,4528.717773,4242.05127,4529.230469,3815.384521,4326.666504,4755.384277,4203.07666,4495.384277,3930.769043
4506.153809,3985.640869,4344.615234,4232.307617,4260.512695,4526.666504,4231.281738,4517.94873,3791.794678,4300,4733.846191,4195.384277,4484.102539,3925.640869
4504.615234,3981.53833,4336.922852,4233.333008,4258.974121,4525.641113,4220.512695,4503.589844,3768.205078,4278.461426,4719.487305,4186.666504,4471.281738,3917.435791
4498.461426,3980.512695,4331.794922,4233.333008,4254.871582,4528.205078,4216.922852,4505.12793,3775.384521,4298.461426,4731.281738,4181.025391,4466.666504,3911.794678
4492.820313,3974.358887,4326.666504,4224.102539,4251.281738,4532.820313,4209.743652,4508.205078,3778.461426,4306.153809,4734.871582,4173.846191,4468.205078,3903.5896
4493.333008,3968.205078,4321.025391,4222.05127,4249.230469,4532.820313,4196.410156,4507.179199,3765.128174,4283.589844,4721.538574,4168.717773,4464.102539,3898.974365
4495.384277,3968.205078,4321.025391,4228.717773,4250.769043,4529.743652,4194.871582,4522.05127,3770.769043,4288.205078,4723.589844,4173.333008,4462.05127,3904.102539
4492.820313,3966.666504,4324.102539,4226.153809,4250.256348,4536.922852,4190.256348,4534.871582,3784.615234,4312.307617,4737.94873,4170.256348,4459.487305,3903.5896
4486.153809,3965.640869,4313.333008,4220,4251.281738,4529.743652,4177.94873,4517.435547,3766.666504,4293.846191,4718.461426,4153.333008,4445.641113,3891.794678
4483.589844,3966.666504,4298.461426,4216.922852,4246.153809,4530.769043,4171.794922,4503.07666,3737.435791,4257.436035,4694.358887,4138.461426,4438.974121,3879.487061
4487.692383,3973.845947,4298.974121,4218.461426,4238.974121,4536.922852,4160.512695,4525.641113,3748.717773,4268.205078,4707.179199,4140.512695,4469.743652,3878.461426
4491.281738,3981.025635,4304.615234,4221.025391,4240.512695,4520.512695,4124.615234,4526.153809,3769.743408,4292.307617,4721.025391,4154.871582,4514.358887,3892.307617
4489.743652,3978.974365,4303.589844,4222.05127,4241.538574,4520.512695,4086.153809,4469.230469,3753.845947,4280.512695,4715.897461,4154.358887,4541.538574,3894.871582
4484.102539,3982.05127,4294.871582,4222.563965,4242.563965,4520,4081.53833,4446.153809,3733.845947,4266.666504,4707.179199,4141.538574,4583.07666,3883.076904
4487.179199,3990.769043,4290.769043,4224.615234,4244.102539,4512.307617,4086.153809,4475.384277,3732.820313,4264.615234,4703.07666,4135.897461,4633.333008,3877.435791
4493.333008,3994.871582,4299.487305,4225.12793,4243.07666,4515.384277,4078.974365,4484.615234,3736.410156,4258.974121,4705.641113,4138.974121,4672.820313,3884.102539
4492.307617,4003.076904,4301.538574,4226.666504,4247.179199,4508.205078,4072.307617,4483.589844,3740.512695,4256.410156,4709.230469,4142.563965,4711.281738,3896.923096
4494.871582,4011.281982,4295.384277,4231.281738,4249.230469,4503.07666,4056.923096,4487.179199,3742.563965,4263.589844,4711.794922,4134.871582,4719.487305,3897.94873
4495.897461,4012.820313,4291.794922,4228.205078,4245.641113,4503.07666,4036.410156,4483.07666,3742.563965,4272.820313,4714.358887,4120,4712.820313,3891.794678
4493.333008,4016.410156,4291.281738,4226.153809,4244.615234,4498.461426,4019.487061,4485.641113,3742.05127,4270.256348,4713.846191,4115.384277,4736.410156,3900
4495.897461,4022.05127,4291.794922,4230.769043,4245.12793,4501.538574,4002.05127,4489.230469,3743.076904,4264.615234,4717.94873,4116.922852,4760.512695,3912.820313
4493.846191,4027.692139,4285.641113,4228.205078,4241.025391,4500,3982.05127,4476.922852,3733.845947,4258.974121,4710.769043,4108.717773,4772.820313,3915.897461
4490.256348,4043.076904,4270.769043,4224.615234,4237.436035,4496.410156,3957.94873,4454.358887,3701.025635,4227.692383,4680.512695,4085.128174,4784.102539,3906.666504
4491.281738,4067.692139,4260.512695,4231.281738,4238.461426,4500,3933.845947,4440.512695,3684.615234,4203.589844,4668.205078,4064.102539,4786.153809,3895.897461
4494.871582,4103.07666,4256.922852,4240.512695,4242.563965,4489.230469,3908.717773,4433.333008,3690.769043,4207.692383,4675.384277,4055.384521,4779.487305,3897.94873
4500,4167.179199,4246.666504,4247.179199,4236.410156,4469.743652,3876.923096,4410.769043,3669.230713,4181.025391,4656.410156,4031.794678,4768.205078,3872.820313
4499.487305,4268.717773,4224.615234,4258.461426,4223.589844,4448.717773,3831.794678,4378.461426,3634.358887,4137.436035,4624.615234,3990.256348,4752.820313,3748.717773
4497.94873,4374.871582,4200,4272.307617,4216.922852,4427.692383,3766.153809,4328.205078,3607.179443,4105.641113,4597.94873,3942.563965,4727.179199,3531.281982
4503.07666,4467.692383,4176.410156,4282.563965,4213.333008,4413.846191,3694.871826,4255.384277,3547.692139,4032.820313,4548.205078,3885.128174,4703.589844,3334.871826
4513.333008,4620.512695,4133.846191,4298.974121,4202.563965,4406.153809,3625.640869,4176.410156,3446.666504,3916.410156,4464.102539,3804.102539,4674.871582,3196.410156
4527.692383,4832.820313,4070.256348,4328.717773,4192.307617,4413.846191,3535.384521,4075.897217,3326.666504,3791.794678,4373.333008,3687.179443,4593.333008,3048.717773
4536.922852,4956.922852,4018.461426,4342.05127,4186.153809,4420.512695,3418.461426,3983.5896,3231.281982,3685.640869,4307.179199,3586.666504,4516.410156,2923.5896
4532.307617,4940,3999.487061,4328.717773,4158.974121,4425.12793,3303.5896,3955.384521,3194.358887,3632.307617,4278.974121,3549.743408,4517.435547,2881.53833
4509.743652,4883.07666,4002.563965,4318.461426,4127.692383,4410.769043,3240,3968.717773,3194.358887,3628.205078,4279.487305,3551.281982,4548.205078,2877.435791
4486.666504,4836.410156,4006.153809,4315.897461,4131.794922,4354.358887,3235.384521,3980.512695,3201.53833,3637.435791,4286.153809,3558.461426,4580,2875.897461
4480.512695,4786.153809,3997.435791,4311.794922,4141.025391,4339.487305,3223.076904,3981.025635,3212.307617,3642.05127,4293.846191,3555.897461,4621.025391,2873.333252
4479.487305,4762.05127,3981.025635,4311.794922,4127.692383,4378.461426,3196.410156,3981.53833,3218.974365,3641.025635,4299.487305,3552.820313,4656.922852,2865.128174
4487.179199,4783.07666,3969.230713,4323.589844,4130.769043,4396.922852,3190.256348,3986.153809,3211.794678,3631.794678,4295.897461,3560.512695,4685.641113,2865.640869
4513.333008,4824.615234,3965.128174,4345.12793,4152.307617,4402.05127,3189.230713,3987.692139,3211.281982,3626.153809,4297.94873,3570.769043,4721.538574,2872.820557
4530.256348,4877.435547,3943.5896,4362.563965,4157.94873,4403.07666,3186.153809,3983.076904,3220,3634.871826,4305.641113,3565.128174,4752.307617,2864.102539
4524.615234,4939.486816,3890.256348,4370.769043,4152.820313,4400.512695,3165.640869,3960,3193.846191,3607.692139,4283.07666,3530.256348,4732.820313,2828.205078
4526.666504,4992.307617,3853.845947,4380,4150.256348,4389.230469,3133.333252,3933.333252,3144.615234,3546.153809,4241.025391,3497.94873,4695.384277,2794.358887
4540,5037.94873,3812.820313,4396.410156,4147.179199,4368.717773,3129.230713,3922.563965,3132.820557,3531.794678,4231.281738,3495.384521,4702.563965,2784.615234
4542.563965,5118.974121,3639.487061,4409.230469,4137.94873,4372.307617,3108.205078,3885.640869,3123.076904,3532.820313,4227.179199,3471.281982,4698.461426,2756.410156
4534.871582,5253.333008,3362.563965,4414.358887,4123.589844,4364.615234,3024.615234,3805.128174,3046.153809,3446.153809,4159.487305,3398.461426,4633.846191,2690.256348
4534.871582,5381.025391,3176.410156,4420.512695,4110.256348,4343.589844,2937.435791,3732.820313,2945.640869,3325.640869,4072.307617,3327.179443,4562.05127,2623.076904
4535.897461,5473.333008,3107.692139,4426.666504,4097.436035,4337.94873,2888.205078,3682.05127,2885.128174,3264.615234,4029.743408,3278.461426,4501.538574,2568.205078
4529.230469,5550.256348,3056.923096,4427.179199,4088.205078,4325.641113,2847.179443,3632.820313,2834.358887,3215.384521,3993.845947,3236.410156,4445.641113,2524.615234
4533.846191,5607.179199,3036.410156,4428.717773,4082.563965,4322.563965,2812.820557,3596.923096,2789.230713,3161.025635,3962.563965,3207.179443,4412.307617,2496.410156
4538.461426,5640.512695,3045.640869,4426.666504,4075.384521,4316.922852,2790.769043,3570.256348,2757.94873,3126.666504,3938.974365,3184.102539,4395.384277,2471.281982
4525.641113,5650.769043,3047.179443,4415.384277,4058.974365,4300,2767.179443,3536.923096,2716.410156,3083.076904,3904.102539,3154.871826,4365.12793,2437.94873
4515.897461,5642.05127,3069.743408,4404.102539,4045.128174,4298.974121,2767.692139,3545.640869,2715.384521,3077.435791,3910.769043,3152.307617,4339.487305,2428.717773
4524.102539,5637.435547,3109.743408,4401.538574,4044.102539,4290.769043,2781.53833,3579.487061,2751.281982,3115.897461,3944.102539,3177.94873,4341.025391,2448.717773
4530.256348,5636.922852,3135.897461,4398.461426,4041.53833,4280,2760.512695,3553.333252,2744.615234,3107.692139,3936.410156,3185.640869,4342.05127,2453.846191
4526.153809,5645.12793,3162.563965,4397.435547,4038.974365,4276.922852,2742.563965,3514.358887,2731.794922,3093.333252,3929.743408,3186.666504,4345.12793,2453.333252
4543.589844,5662.05127,3195.897461,4402.05127,4043.5896,4279.487305,2758.974365,3531.281982,2749.743408,3109.743408,3944.102539,3201.53833,4348.717773,2466.153809
4584.615234,5660.512695,3222.05127,4402.563965,4040.512695,4296.922852,2772.307617,3545.128174,2741.53833,3095.897461,3936.923096,3205.640869,4330.256348,2469.230713
4603.589844,5628.717773,3248.205078,4397.94873,4036.410156,4312.820313,2784.615234,3541.53833,2732.307617,3091.281982,3934.871582,3212.307617,4329.743652,2471.794922
4599.487305,5587.692383,3283.5896,4390.769043,4037.94873,4329.230469,2810.769043,3555.897461,2763.5896,3134.871826,3964.615234,3237.435791,4350.256348,2490.769287
4590.256348,5542.05127,3318.461426,4378.974121,4035.897217,4334.871582,2841.025635,3581.025635,2786.666504,3158.974365,3980,3263.5896,4355.897461,2512.820557
4568.205078,5474.871582,3347.692139,4365.641113,4026.666504,4324.615234,2874.871826,3611.794678,2797.435791,3163.076904,3981.53833,3291.281982,4368.205078,2534.358887
4550.256348,5403.589844,3383.5896,4356.922852,4022.05127,4331.281738,2913.846191,3649.743408,2837.94873,3207.692139,4019.487061,3335.897461,4393.846191,2566.153809
4561.538574,5356.410156,3422.563965,4353.333008,4029.230713,4348.205078,2969.230713,3693.333252,2892.307617,3273.846191,4070.769043,3381.025635,4417.435547,2603.076904
4577.435547,5322.05127,3451.281982,4346.153809,4032.820313,4368.205078,3015.384521,3728.717773,2920,3301.53833,4084.615234,3404.615234,4447.179199,2623.5896
4577.94873,5294.358887,3471.794678,4338.974121,4025.128174,4383.589844,3017.435791,3732.307617,2923.076904,3300,4077.94873,3419.487061,4477.435547,2633.333252
4577.94873,5286.153809,3496.410156,4337.94873,4024.615234,4377.435547,3018.974365,3725.128174,2938.461426,3328.717773,4093.333252,3442.563965,4470.769043,2654.871826
4583.07666,5284.615234,3526.666504,4337.94873,4029.230713,4374.358887,3060,3734.358887,2966.153809,3374.358887,4123.07666,3462.563965,4432.820313,2677.435791
4583.589844,5271.281738,3543.5896,4332.820313,4029.230713,4371.794922,3107.179443,3744.615234,2967.692139,3372.820313,4121.025391,3472.307617,4414.358887,2679.487061
4578.461426,5253.333008,3553.845947,4329.230469,4030.769043,4363.589844,3137.435791,3745.128174,2956.410156,3355.384521,4107.692383,3467.692139,4416.922852,2676.410156
4582.563965,5232.820313,3575.384521,4328.205078,4035.384521,4367.692383,3173.846191,3754.871582,2974.358887,3376.923096,4124.615234,3477.435791,4413.846191,2687.179443
4590.769043,5202.05127,3600,4325.12793,4040.512695,4365.641113,3215.384521,3774.358887,2995.384521,3400,4137.94873,3536.410156,4415.384277,2709.230713
4592.820313,5155.384277,3622.563965,4323.589844,4041.025635,4361.538574,3243.5896,3791.281982,3002.05127,3412.820313,4145.641113,3605.128174,4428.205078,2733.333252
4591.794922,5100.512695,3645.128174,4318.461426,4042.05127,4362.563965,3277.435791,3822.05127,3030.769043,3450.769043,4170.256348,3636.923096,4447.179199,2758.974365
4587.179199,5046.666504,3666.153809,4307.692383,4044.102539,4360,3320,3857.94873,3066.666504,3490.769043,4191.281738,3654.871826,4462.563965,2785.640869
4581.025391,4971.281738,3690.256348,4296.410156,4042.563965,4350.769043,3342.563965,3872.307617,3090.769043,3518.974365,4212.307617,3687.179443,4487.692383,2814.871826
4575.897461,4887.179199,3714.358887,4285.12793,4041.53833,4322.05127,3360,3900.512695,3128.205078,3562.05127,4239.487305,3724.102539,4537.94873,2852.820557
4576.410156,4831.281738,3739.487061,4273.846191,4046.666504,4315.897461,3393.333252,3946.666504,3165.128174,3600,4262.05127,3756.410156,4559.487305,2888.205078
4584.102539,4787.692383,3766.153809,4265.12793,4056.923096,4334.871582,3424.615234,3968.717773,3194.358887,3632.307617,4291.281738,3787.179443,4554.358887,2921.025635
4598.461426,4740.512695,3785.128174,4261.025391,4064.615234,4323.07666,3442.05127,3972.307617,3228.205078,3678.461426,4318.461426,3811.794678,4577.435547,2947.179443
4607.692383,4711.281738,3800,4257.94873,4070.256348,4310.769043,3458.974365,3988.205078,3255.897461,3711.794678,4331.281738,3826.153809,4594.871582,2957.435791
4615.897461,4705.641113,3811.794678,4255.384277,4078.461426,4306.666504,3486.666504,4005.640869,3253.333252,3708.717773,4321.025391,3829.743408,4571.281738,2963.076904
4635.384277,4695.384277,3818.461426,4253.333008,4083.076904,4298.974121,3526.666504,4006.153809,3230.769043,3686.153809,4303.589844,3824.615234,4546.153809,2968.205078
4640,4674.358887,3830.256348,4249.230469,4081.53833,4303.07666,3566.666504,4023.076904,3232.307617,3690.769043,4312.307617,3831.794678,4557.94873,2984.615234
4609.743652,4667.692383,3849.743408,4245.641113,4087.179443,4309.743652,3586.666504,4057.435791,3260.512695,3728.205078,4337.436035,3858.461426,4592.307617,3016.923096
4580,4661.538574,3863.076904,4240.512695,4092.307617,4318.974121,3589.743408,4052.820313,3276.923096,3754.358887,4351.281738,3871.794678,4608.717773,3034.358887
4552.307617,4623.07666,3845.128174,4221.538574,4073.845947,4312.307617,3578.974365,4010.769043,3254.871826,3736.923096,4329.743652,3844.102539,4584.615234,3020.512695
4507.692383,4569.230469,3817.435791,4195.384277,4042.563965,4300,3562.563965,3986.153809,3224.615234,3707.692139,4303.07666,3807.692139,4551.794922,3005.640869
4481.025391,4543.589844,3825.128174,4180.512695,4036.923096,4303.07666,3573.333252,3997.435791,3226.153809,3706.666504,4308.205078,3813.333252,4556.410156,3025.640869
4470.769043,4535.384277,3846.153809,4182.05127,4048.205078,4303.07666,3600.512695,4014.871582,3234.358887,3707.692139,4315.384277,3833.845947,4563.589844,3047.692139
4454.871582,4514.358887,3853.845947,4182.563965,4046.666504,4302.05127,3613.333252,4022.563965,3240.512695,3716.410156,4323.07666,3838.974365,4555.897461,3052.307617
4456.922852,4501.025391,3863.076904,4178.461426,4046.153809,4299.487305,3626.153809,4045.128174,3265.640869,3753.333252,4346.153809,3852.820313,4592.307617,3093.846191
4479.487305,4496.410156,3880,4181.538574,4056.410156,4301.538574,3644.102539,4070.256348,3290.769043,3779.487061,4364.615234,3869.743408,4632.307617,3161.025635
4489.230469,4480,3894.358887,4187.692383,4060.512695,4309.230469,3651.281982,4065.128174,3295.897461,3785.128174,4366.666504,3873.333252,4609.230469,3192.820557
4482.563965,4465.641113,3903.5896,4186.153809,4064.102539,4306.666504,3657.94873,4053.333252,3291.794678,3793.333252,4363.589844,3881.025635,4602.05127,3195.897461
4473.333008,4469.743652,3913.333252,4187.692383,4070.256348,4313.846191,3667.692139,4053.333252,3284.615234,3785.640869,4357.435547,3883.076904,4630.256348,3197.94873
4457.435547,4469.743652,3922.05127,4195.384277,4074.871582,4318.461426,3681.53833,4054.871582,3276.923096,3763.5896,4342.05127,3877.94873,4620,3202.05127
4446.153809,4429.230469,3927.179443,4194.358887,4075.897217,4317.436035,3693.845947,4053.845947,3279.487061,3765.128174,4339.487305,3883.5896,4592.820313,3205.640869
4463.07666,4372.820313,3936.410156,4186.153809,4075.384521,4322.05127,3700,4061.53833,3297.435791,3795.384521,4363.07666,3895.897461,4614.871582,3215.384521
4483.07666,4340,3947.179443,4180.512695,4081.025635,4315.897461,3712.820313,4086.153809,3321.53833,3824.102539,4384.615234,3910.256348,4665.641113,3232.820313
4487.179199,4305.12793,3956.410156,4173.846191,4084.615234,4312.307617,3725.128174,4109.230469,3342.563965,3838.461426,4395.897461,3928.205078,4698.461426,3250.256348
4497.94873,4255.384277,3971.794678,4169.743652,4088.205078,4326.666504,3733.333252,4135.384277,3374.871826,3875.897461,4422.05127,3955.384521,4734.871582,3270.769043
4506.153809,4202.563965,3995.384521,4171.794922,4100.512695,4362.563965,3737.435791,4172.307617,3411.794678,3935.384521,4454.358887,3989.743408,4776.922852,3298.461426
4495.384277,4152.820313,4014.358887,4171.281738,4110.256348,4392.307617,3718.461426,4203.07666,3427.179443,3966.153809,4472.820313,4016.923096,4796.922852,3324.615234
4483.07666,4119.487305,4014.358887,4164.102539,4105.641113,4381.538574,3683.076904,4210.769043,3428.717773,3969.230713,4472.820313,4028.205078,4802.563965,3336.923096
4485.12793,4114.871582,4001.025635,4155.897461,4096.410156,4378.461426,3655.897461,4193.333008,3422.05127,3964.102539,4463.589844,4018.974365,4791.794922,3326.153809
4492.307617,4136.922852,3990.256348,4155.384277,4094.358887,4387.179199,3631.281982,4167.692383,3402.563965,3943.076904,4443.07666,3999.487061,4771.281738,3305.128174
4493.846191,4172.307617,3982.563965,4162.05127,4092.307617,4378.461426,3597.435791,4153.846191,3382.563965,3915.384521,4419.487305,3985.128174,4756.922852,3290.769043
4502.563965,4210.256348,3981.025635,4169.743652,4090.769043,4377.435547,3572.820313,4151.794922,3372.307617,3904.102539,4413.846191,3972.820313,4738.461426,3276.410156
4519.487305,4278.461426,3977.94873,4178.974121,4097.94873,4374.871582,3564.615234,4141.538574,3361.025635,3896.923096,4404.615234,3953.333252,4708.205078,3256.923096
4529.230469,4405.641113,3963.5896,4186.666504,4098.461426,4368.717773,3547.692139,4096.922852,3324.615234,3855.384521,4367.692383,3914.358887,4670.256348,3218.461426
4526.153809,4534.871582,3951.281982,4189.743652,4094.358887,4346.666504,3535.384521,4042.05127,3273.333252,3794.871582,4329.230469,3872.820313,4642.05127,3173.846191
4525.12793,4551.281738,3968.717773,4183.589844,4105.12793,4310.256348,3606.153809,4047.692139,3263.5896,3791.794678,4331.794922,3873.333252,4646.666504,3173.333252
4532.307617,4461.538574,4017.435791,4180,4120,4323.07666,3753.333252,4110.256348,3311.794678,3853.333252,4377.94873,3916.923096,4673.333008,3215.897461
4530.769043,4386.153809,4058.461426,4177.94873,4128.717773,4348.205078,3858.974365,4166.153809,3375.384521,3923.5896,4429.743652,3965.128174,4704.102539,3258.461426
4520.512695,4385.641113,4073.845947,4174.871582,4135.897461,4337.94873,3885.640869,4187.692383,3414.358887,3968.717773,4463.589844,3990.256348,4730.256348,3281.53833
4513.846191,4417.94873,4073.333252,4176.410156,4135.897461,4330.769043,3887.692139,4174.871582,3415.897461,3975.384521,4465.12793,3979.487061,4727.179199,3275.897461
4507.692383,4431.281738,4064.615234,4183.07666,4132.820313,4327.179199,3893.333252,4150.769043,3398.974365,3952.307617,4442.05127,3955.897461,4708.205078,3256.410156
4505.641113,4412.307617,4068.205078,4186.666504,4133.846191,4327.692383,3902.05127,4154.358887,3401.025635,3945.640869,4440,3956.410156,4700,3257.94873
4504.615234,4390.769043,4078.461426,4184.102539,4135.897461,4326.153809,3915.897461,4177.436035,3417.435791,3966.666504,4456.922852,3971.281982,4699.487305,3274.871826
4496.922852,4396.410156,4078.974365,4183.07666,4137.94873,4322.05127,3923.076904,4177.436035,3411.281982,3965.128174,4448.717773,3972.307617,4696.922852,3275.384521
4498.461426,4406.153809,4077.435791,4187.692383,4140,4328.205078,3925.128174,4153.846191,3389.743408,3939.487061,4430.256348,3961.025635,4681.538574,3258.461426
4510.256348,4411.281738,4081.53833,4190.256348,4143.589844,4324.615234,3932.820313,4151.281738,3389.743408,3945.128174,4433.846191,3957.435791,4667.692383,3255.897461
4519.487305,4417.435547,4087.692139,4188.205078,4145.12793,4324.615234,3936.923096,4164.102539,3403.5896,3966.666504,4450.256348,3959.487061,4661.025391,3262.563965
4526.666504,4418.974121,4094.358887,4192.820313,4147.179199,4328.205078,3939.487061,4162.563965,3402.05127,3961.53833,4447.179199,3953.333252,4663.07666,3259.487061
4529.230469,4411.281738,4102.05127,4197.94873,4150.256348,4323.589844,3948.717773,4157.94873,3392.820313,3950.769043,4435.384277,3953.333252,4664.615234,3262.05127
4523.07666,4387.179199,4105.12793,4192.307617,4147.692383,4326.666504,3960.512695,4161.025391,3395.897461,3958.974365,4441.025391,3956.410156,4646.153809,3265.640869
4519.487305,4367.179199,4105.12793,4185.641113,4149.230469,4322.563965,3975.384521,4174.358887,3403.5896,3958.461426,4442.05127,3960,4642.563965,3269.230713
4526.666504,4362.563965,4114.358887,4187.692383,4157.436035,4320.512695,3978.974365,4190.256348,3407.692139,3950.769043,4441.025391,3972.307617,4664.615234,3281.53833
4528.717773,4363.589844,4125.641113,4192.820313,4161.538574,4323.589844,3980.512695,4197.94873,3420.512695,3971.281982,4454.871582,3979.487061,4675.897461,3289.743408
4521.025391,4357.435547,4128.205078,4189.743652,4158.461426,4317.94873,4001.025635,4210.256348,3442.05127,4011.794678,4474.358887,3982.563965,4672.820313,3295.897461
4521.025391,4346.666504,4132.820313,4190.769043,4158.461426,4323.07666,4003.5896,4211.281738,3455.384521,4030.256348,4485.641113,3984.615234,4660.512695,3300.512695
4524.102539,4344.615234,4138.461426,4197.436035,4167.692383,4323.07666,3990.769043,4198.461426,3452.820313,4027.179443,4482.05127,3985.640869,4658.461426,3302.05127
4519.487305,4340,4143.07666,4196.922852,4173.333008,4322.05127,4010.256348,4197.94873,3447.692139,4023.5896,4477.435547,3987.179443,4674.358887,3304.615234
4515.897461,4330.256348,4147.179199,4192.307617,4170.256348,4328.205078,4038.974365,4209.743652,3456.923096,4023.076904,4477.94873,3985.128174,4682.563965,3309.230713
4512.307617,4326.153809,4147.692383,4195.897461,4171.281738,4320.512695,4037.435791,4218.974121,3470.256348,4031.281982,4481.538574,3987.692139,4678.461426,3317.435791
4512.820313,4317.436035,4150.769043,4195.897461,4174.871582,4322.05127,4028.205078,4216.922852,3464.615234,4036.410156,4487.179199,3986.666504,4670.256348,3316.923096
4515.384277,4304.615234,4154.358887,4164.615234,4175.384277,4321.538574,4038.974365,4220.512695,3455.384521,4031.794678,4482.05127,3984.102539,4666.666504,3313.333252
4513.333008,4297.436035,4156.410156,4130.769043,4175.897461,4317.94873,4044.615234,4232.820313,3464.102539,4036.410156,4482.05127,3993.333252,4665.641113,3324.102539
4515.897461,4294.871582,4162.05127,4127.692383,4177.94873,4321.538574,4032.307617,4233.846191,3471.794678,4052.820313,4495.897461,4000.512695,4664.102539,3333.846191
4517.94873,4292.307617,4168.717773,4136.410156,4182.05127,4313.846191,4042.563965,4237.436035,3481.53833,4074.871582,4508.717773,4003.5896,4668.717773,3335.897461
4513.333008,4283.589844,4174.358887,4140.512695,4183.07666,4317.436035,4067.692139,4246.666504,3490.256348,4077.94873,4508.205078,4005.128174,4666.153809,3336.410156
4506.153809,4272.820313,4177.436035,4146.153809,4179.487305,4322.05127,4066.666504,4245.641113,3481.025635,4062.563965,4495.384277,4006.666504,4664.615234,3341.025635
4498.974121,4265.12793,4175.897461,4151.794922,4177.436035,4313.846191,4057.435791,4240,3481.53833,4069.743408,4494.358887,4009.230713,4671.281738,3346.153809
4493.846191,4257.94873,4175.384277,4156.410156,4177.436035,4317.94873,4065.128174,4231.281738,3489.743408,4080,4501.025391,4005.640869,4662.05127,3343.076904
4490.769043,4251.281738,4177.94873,4162.563965,4179.487305,4320.512695,4076.923096,4238.974121,3484.615234,4065.640869,4494.358887,4005.128174,4657.435547,3346.666504
4492.820313,4246.153809,4183.07666,4163.589844,4181.025391,4325.12793,4073.333252,4259.487305,3492.820313,4071.281982,4499.487305,4015.897217,4672.820313,3357.94873
4493.333008,4248.205078,4187.179199,4171.281738,4185.12793,4323.589844,4065.128174,4264.102539,3517.435791,4103.07666,4515.897461,4021.025635,4670.769043,3360.512695
4490.256348,4250.256348,4191.794922,4180,4191.794922,4316.410156,4071.794678,4257.94873,3524.615234,4112.820313,4518.974121,4021.025635,4658.974121,3363.076904
4494.358887,4246.153809,4202.563965,4181.025391,4194.871582,4325.12793,4079.487061,4262.05127,3525.640869,4111.281738,4522.563965,4025.128174,4674.358887,3372.820313
4496.922852,4243.589844,4208.717773,4185.641113,4197.94873,4323.589844,4080,4276.922852,3531.281982,4118.974121,4528.205078,4032.820313,4688.205078,3381.025635
4494.358887,4241.538574,4210.256348,4193.333008,4200,4322.05127,4079.487061,4280.512695,3528.205078,4114.358887,4523.589844,4038.461426,4674.358887,3386.666504
4498.461426,4241.538574,4218.974121,4195.897461,4201.025391,4326.153809,4083.5896,4275.897461,3529.743408,4120,4524.615234,4046.666504,4675.897461,3400
4504.615234,4240.512695,4230.769043,4197.436035,4206.153809,4323.07666,4096.410156,4293.846191,3544.102539,4141.025391,4535.384277,4057.94873,4699.487305,3411.794678
4506.666504,4236.410156,4238.461426,4206.153809,4211.281738,4325.641113,4110.769043,4318.461426,3551.794678,4144.102539,4542.563965,4064.615234,4697.94873,3415.384521
4508.717773,4237.94873,4240.512695,4212.307617,4214.871582,4324.102539,4114.358887,4320.512695,3555.897461,4147.179199,4544.615234,4071.281982,4693.333008,3426.153809
4509.743652,4238.461426,4245.12793,4211.281738,4217.94873,4328.717773,4111.794922,4316.410156,3569.230713,4167.692383,4554.358887,4077.94873,4704.102539,3436.923096
4509.230469,4235.384277,4254.358887,4211.794922,4221.538574,4331.794922,4115.384277,4330.256348,3583.5896,4183.589844,4564.615234,4082.05127,4711.794922,3439.487061
4509.230469,4231.794922,4259.487305,4216.922852,4223.589844,4324.615234,4125.12793,4343.07666,3590.769043,4187.179199,4565.12793,4088.717773,4712.307617,3446.153809
4510.256348,4226.153809,4261.538574,4219.487305,4224.615234,4330.769043,4129.743652,4345.641113,3599.487061,4190.256348,4570.256348,4090.769043,4703.589844,3448.717773
4509.230469,4221.025391,4260.512695,4218.461426,4226.666504,4330.256348,4127.179199,4355.897461,3611.281982,4202.05127,4576.410156,4093.845947,4701.538574,3451.281982
4504.615234,4217.436035,4260.512695,4220,4224.615234,4327.179199,4113.333008,4347.179199,3604.615234,4201.538574,4570.769043,4093.845947,4702.563965,3451.281982
4500,4215.384277,4263.07666,4223.07666,4225.12793,4331.281738,4108.205078,4330.769043,3585.128174,4185.641113,4557.94873,4088.717773,4697.435547,3447.179443
4502.05127,4216.410156,4266.666504,4226.153809,4233.333008,4332.307617,4130.256348,4350.769043,3586.153809,4187.692383,4557.94873,4093.333252,4698.974121,3455.384521
4504.102539,4215.384277,4270.769043,4229.230469,4234.358887,4338.461426,4138.974121,4363.07666,3595.384521,4203.589844,4569.743652,4097.436035,4697.94873,3463.076904
4501.025391,4215.384277,4270.256348,4227.692383,4230.769043,4333.333008,4124.615234,4348.205078,3595.897461,4207.179199,4571.281738,4095.384521,4701.025391,3460.512695
4505.641113,4222.05127,4276.922852,4231.794922,4238.974121,4332.307617,4132.820313,4354.871582,3598.974365,4211.281738,4573.333008,4103.589844,4715.897461,3470.769043
4513.846191,4225.12793,4292.820313,4243.589844,4247.179199,4343.589844,4160,4375.384277,3605.128174,4217.94873,4583.589844,4117.94873,4729.230469,3488.205078
4512.820313,4221.538574,4296.922852,4244.615234,4247.692383,4335.897461,4165.12793,4380,3611.794678,4225.641113,4585.641113,4126.666504,4736.922852,3495.897461
4515.384277,4214.871582,4295.384277,4240,4247.692383,4332.307617,4148.717773,4381.538574,3624.615234,4241.538574,4587.179199,4128.717773,4733.333008,3496.410156
4520.512695,4211.281738,4299.487305,4242.05127,4249.743652,4331.281738,4151.281738,4385.12793,3627.179443,4250.256348,4588.205078,4130.256348,4726.153809,3498.461426
4515.897461,4210.769043,4304.102539,4249.743652,4252.820313,4329.743652,4167.692383,4386.153809,3621.025635,4241.538574,4585.641113,4133.333008,4731.281738,3503.5896
4513.846191,4207.179199,4308.205078,4251.281738,4253.846191,4337.436035,4167.179199,4391.281738,3627.692139,4243.07666,4587.692383,4137.436035,4738.461426,3514.871826
4514.358887,4200.512695,4311.794922,4246.153809,4253.333008,4332.307617,4157.436035,4398.974121,3637.94873,4251.281738,4589.230469,4145.12793,4736.410156,3524.615234
4513.846191,4194.358887,4316.922852,4246.666504,4253.333008,4334.358887,4163.589844,4398.974121,3635.384521,4247.179199,4590.256348,4151.281738,4724.102539,3523.5896
4514.358887,4195.384277,4322.05127,4254.871582,4257.436035,4336.922852,4177.436035,4398.461426,3635.897461,4252.307617,4595.897461,4154.871582,4723.589844,3525.640869
4513.333008,4196.922852,4324.102539,4256.410156,4259.487305,4331.794922,4182.05127,4401.538574,3642.05127,4260,4597.94873,4156.922852,4733.846191,3531.281982
4513.846191,4192.307617,4326.666504,4255.384277,4260.512695,4335.384277,4177.94873,4402.05127,3643.5896,4260.512695,4600.512695,4157.94873,4733.846191,3531.794678
4514.358887,4188.205078,4330.256348,4258.461426,4264.102539,4332.820313,4175.897461,4405.12793,3647.179443,4271.794922,4604.615234,4162.563965,4736.410156,3538.461426
4512.307617,4183.589844,4332.820313,4255.897461,4260.512695,4334.358887,4178.974121,4405.641113,3646.666504,4275.897461,4606.153809,4162.05127,4743.07666,3545.128174
4508.205078,4177.94873,4335.384277,4256.922852,4259.487305,4336.922852,4188.717773,4415.897461,3648.717773,4272.307617,4609.230469,4162.05127,4749.230469,3546.666504
4507.179199,4175.384277,4340.512695,4266.153809,4267.692383,4333.846191,4206.153809,4440,3661.025635,4282.563965,4617.94873,4170.769043,4751.794922,3553.333252
4508.717773,4170.256348,4344.615234,4269.743652,4267.692383,4339.487305,4208.205078,4446.666504,3668.205078,4297.436035,4624.102539,4174.358887,4743.07666,3556.923096
4508.205078,4166.666504,4345.641113,4267.179199,4264.102539,4336.922852,4198.974121,4445.12793,3675.384521,4307.179199,4628.717773,4177.436035,4744.102539,3562.563965
4512.820313,4165.12793,4353.846191,4270.256348,4269.230469,4340,4203.07666,4455.897461,3688.205078,4310.256348,4637.435547,4187.179199,4754.358887,3573.333252
4513.846191,4164.615234,4362.563965,4274.871582,4272.820313,4346.153809,4214.871582,4465.12793,3689.230713,4302.05127,4632.820313,4189.743652,4748.205078,3575.897461
4505.641113,4160,4357.94873,4270.769043,4267.692383,4336.410156,4205.641113,4458.461426,3675.384521,4297.436035,4620.512695,4181.025391,4733.333008,3570.256348
4504.102539,4150.256348,4352.307617,4267.692383,4263.07666,4338.974121,4187.179199,4442.563965,3670.769043,4305.641113,4624.102539,4170.256348,4727.179199,3565.128174
4507.179199,4147.692383,4358.461426,4269.743652,4266.666504,4340,4198.461426,4450.769043,3681.53833,4313.846191,4631.281738,4170.769043,4731.281738,3569.743408
4503.589844,4148.717773,4362.05127,4271.794922,4267.692383,4337.436035,4207.179199,4464.102539,3681.025635,4309.230469,4628.717773,4177.436035,4732.820313,3579.487061
4502.563965,4147.179199,4364.615234,4272.820313,4265.641113,4341.025391,4198.461426,4462.05127,3672.307617,4305.641113,4628.717773,4185.12793,4734.358887,3588.205078
4506.666504,4149.230469,4369.743652,4276.922852,4273.333008,4337.94873,4202.05127,4471.281738,3675.897461,4312.307617,4633.333008,4190.769043,4738.974121,3594.871826
4504.102539,4147.179199,4370.256348,4280,4274.358887,4342.563965,4199.487305,4470.769043,3679.487061,4317.436035,4633.846191,4185.12793,4736.410156,3590.256348
4497.435547,4138.461426,4366.153809,4275.897461,4265.641113,4339.487305,4182.563965,4453.333008,3671.794678,4311.794922,4629.743652,4181.025391,4742.563965,3588.205078
4494.871582,4134.358887,4369.230469,4271.794922,4264.102539,4335.897461,4179.487305,4455.897461,3668.717773,4305.12793,4625.641113,4187.692383,4748.717773,3597.435791
4497.94873,4134.871582,4374.358887,4273.846191,4267.692383,4347.692383,4193.333008,4474.358887,3676.410156,4310.769043,4631.794922,4191.281738,4737.94873,3601.53833
4496.922852,4132.307617,4366.153809,4274.358887,4266.153809,4348.717773,4192.820313,4475.384277,3684.102539,4321.538574,4637.435547,4187.179199,4733.846191,3601.53833
4494.871582,4123.07666,4363.07666,4271.281738,4263.07666,4349.230469,4176.922852,4463.07666,3685.640869,4322.05127,4635.384277,4183.07666,4736.410156,3603.5896
4495.384277,4122.563965,4371.794922,4271.794922,4266.153809,4347.179199,4171.281738,4461.025391,3687.692139,4318.461426,4633.333008,4185.12793,4732.820313,3606.666504
4496.410156,4127.179199,4375.384277,4276.922852,4270.769043,4345.12793,4179.487305,4468.205078,3689.230713,4318.461426,4633.333008,4188.205078,4727.692383,3610.256348
4503.589844,4129.230469,4377.94873,4282.563965,4275.384277,4357.435547,4192.820313,4488.717773,3696.923096,4329.743652,4645.12793,4190.256348,4729.230469,3616.923096
4510.256348,4133.846191,4385.641113,4287.179199,4283.589844,4355.897461,4200.512695,4507.179199,3708.205078,4347.179199,4658.461426,4196.922852,4744.102539,3628.205078
4508.205078,4133.333008,4388.205078,4288.717773,4283.589844,4354.871582,4199.487305,4495.897461,3709.230713,4346.153809,4656.922852,4198.974121,4740.512695,3628.205078
4503.07666,4133.333008,4387.692383,4287.692383,4282.05127,4357.435547,4201.538574,4493.333008,3712.820313,4343.07666,4654.358887,4200.512695,4728.717773,3626.153809
4505.641113,4136.410156,4392.307617,4290.256348,4285.641113,4354.358887,4203.07666,4508.717773,3722.563965,4357.94873,4662.05127,4209.230469,4744.615234,3636.410156
4508.717773,4131.281738,4396.922852,4292.820313,4286.153809,4358.461426,4190.769043,4500.512695,3720,4363.07666,4666.666504,4202.563965,4755.384277,3639.487061
4506.666504,4127.179199,4398.974121,4291.281738,4285.641113,4356.922852,4188.205078,4495.384277,3716.410156,4356.410156,4662.05127,4199.487305,4749.743652,3642.05127
4508.205078,4130.769043,4405.641113,4291.794922,4289.230469,4362.563965,4196.922852,4511.281738,3720.512695,4356.922852,4663.07666,4214.358887,4749.230469,3649.743408
4510.769043,4128.717773,4409.743652,4294.871582,4291.281738,4364.102539,4186.666504,4508.205078,3714.871582,4356.410156,4660,4189.230469,4743.589844,3649.230713
4506.153809,4114.871582,4402.05127,4287.692383,4285.641113,4352.307617,4160,4487.692383,3706.666504,4347.179199,4650.256348,4125.12793,4735.897461,3647.179443
4502.05127,4103.589844,4400,4281.025391,4278.461426,4356.410156,4153.333008,4489.230469,3718.461426,4344.615234,4652.820313,4097.436035,4737.435547,3649.230713
4499.487305,4104.615234,4402.563965,4285.12793,4280,4357.435547,4177.94873,4505.12793,3735.897461,4352.307617,4657.435547,4112.820313,4744.615234,3653.845947
4500,4104.102539,4397.94873,4288.205078,4283.589844,4355.384277,4182.563965,4499.487305,3735.897461,4347.692383,4654.358887,4114.358887,4741.538574,3653.845947
4500,4096.922852,4394.358887,4283.589844,4281.025391,4351.281738,4156.410156,4483.589844,3722.563965,4328.205078,4643.07666,4104.615234,4730.769043,3650.256348
4494.871582,4090.769043,4393.846191,4286.153809,4280,4340.512695,4158.974121,4497.94873,3718.461426,4320.512695,4636.410156,4110.256348,4729.230469,3650.769043
4495.897461,4087.692139,4397.94873,4297.436035,4281.538574,4347.179199,4177.436035,4517.435547,3729.743408,4336.922852,4650.769043,4116.410156,4730.256348,3650.769043
4500.512695,4087.692139,4398.974121,4299.487305,4280,4345.12793,4162.05127,4504.615234,3736.410156,4349.743652,4659.487305,4116.922852,4731.281738,3650.769043
4500.512695,4087.179443,4399.487305,4296.922852,4277.436035,4345.12793,4144.615234,4488.205078,3728.205078,4337.436035,4649.743652,4117.436035,4727.179199,3651.281982
4500,4087.692139,4407.692383,4298.461426,4278.461426,4365.641113,4160.512695,4507.179199,3729.230713,4338.461426,4654.871582,4123.589844,4720,3657.94873
4500.512695,4093.845947,4411.794922,4298.974121,4283.589844,4363.589844,4167.179199,4534.358887,3743.076904,4363.589844,4669.743652,4134.871582,4728.205078,3673.333252
4501.538574,4093.845947,4412.307617,4300.512695,4286.153809,4361.538574,4149.230469,4517.435547,3736.410156,4363.07666,4664.615234,4134.358887,4732.307617,3675.897461
4505.12793,4089.743408,4415.897461,4303.589844,4288.205078,4368.205078,4157.94873,4502.05127,3727.179443,4349.743652,4655.384277,4134.871582,4728.717773,3677.435791
4508.717773,4090.769043,4422.05127,4305.12793,4292.820313,4361.025391,4180,4534.871582,3743.5896,4361.538574,4666.153809,4149.230469,4738.461426,3689.743408
4509.230469,4089.230713,4427.179199,4305.12793,4293.846191,4360,4168.717773,4549.230469,3750.256348,4368.205078,4675.897461,4154.358887,4743.589844,3693.845947
4502.05127,4082.05127,4423.07666,4301.538574,4293.333008,4361.025391,4148.717773,4519.487305,3730.256348,4350.256348,4662.563965,4146.153809,4735.897461,3685.640869
4498.461426,4074.871582,4418.974121,4298.461426,4290.769043,4363.07666,4146.666504,4506.153809,3718.974365,4335.384277,4650.769043,4140,4722.563965,3679.487061
4503.589844,4071.794678,4422.05127,4298.461426,4285.641113,4361.025391,4150.769043,4519.487305,3730.769043,4337.94873,4658.974121,4141.025391,4714.358887,3682.05127
4501.025391,4072.307617,4424.615234,4298.974121,4287.692383,4354.871582,4152.820313,4524.102539,3731.281982,4338.974121,4660.512695,4147.179199,4717.435547,3687.692139
4498.461426,4074.358887,4428.717773,4302.563965,4294.358887,4363.07666,4152.820313,4523.589844,3721.025635,4331.794922,4653.846191,4153.846191,4722.563965,3689.743408
4500.512695,4076.410156,4430.769043,4305.641113,4298.461426,4360,4147.179199,4532.820313,3727.692139,4334.358887,4654.871582,4156.410156,4727.692383,3692.820313
4496.922852,4069.230713,4423.589844,4302.563965,4292.307617,4355.384277,4125.12793,4526.666504,3734.871582,4338.461426,4658.974121,4146.666504,4721.025391,3686.666504
4492.820313,4062.563965,4420.512695,4301.538574,4288.717773,4358.974121,4108.717773,4504.615234,3731.281982,4336.410156,4657.435547,4141.025391,4713.846191,3678.974365
4495.897461,4068.205078,4428.205078,4303.589844,4294.358887,4363.07666,4117.436035,4507.692383,3737.435791,4346.153809,4661.025391,4149.743652,4724.615234,3687.179443
4501.025391,4069.230713,4438.461426,4304.615234,4300,4373.846191,4130.256348,4532.307617,3760,4370.769043,4680,4157.436035,4729.743652,3693.333252
4502.05127,4065.640869,4440.512695,4305.641113,4301.025391,4369.230469,4135.384277,4547.692383,3770.256348,4380.512695,4689.743652,4163.07666,4725.12793,3692.820313
4497.94873,4066.153809,4438.461426,4305.12793,4296.410156,4366.153809,4136.410156,4541.538574,3745.640869,4352.307617,4670.256348,4162.563965,4713.846191,3690.769043
4493.846191,4064.102539,4440,4303.589844,4293.846191,4367.179199,4133.333008,4524.102539,3717.94873,4322.05127,4651.281738,4151.794922,4695.897461,3688.717773
4493.333008,4058.461426,4440.512695,4304.102539,4297.94873,4360.512695,4137.436035,4523.07666,3716.923096,4324.102539,4651.794922,4151.281738,4692.820313,3692.307617
4492.820313,4051.794678,4436.922852,4301.025391,4297.436035,4367.692383,4131.794922,4518.974121,3713.845947,4317.436035,4650.256348,4150.256348,4695.897461,3688.205078
4487.692383,4047.179443,4431.281738,4293.846191,4288.205078,4364.102539,4109.743652,4502.563965,3697.435791,4292.820313,4635.897461,4138.461426,4685.641113,3678.974365
4487.692383,4048.205078,4432.820313,4295.384277,4287.179199,4356.922852,4111.794922,4498.461426,3698.461426,4297.94873,4637.94873,4136.922852,4678.461426,3682.05127
4491.794922,4049.743408,4440,4302.05127,4293.846191,4368.205078,4133.333008,4511.281738,3723.5896,4327.179199,4660,4145.641113,4687.692383,3688.717773
4488.717773,4043.076904,4440,4300,4294.358887,4370.769043,4133.846191,4527.692383,3741.53833,4341.538574,4672.820313,4146.153809,4698.461426,3690.769043
4486.153809,4037.435791,4441.538574,4297.94873,4290.769043,4365.12793,4123.589844,4535.384277,3780.512695,4386.666504,4732.820313,4150.769043,4696.410156,3693.333252
4489.230469,4041.025635,4450.769043,4302.05127,4293.333008,4356.410156,4132.307617,4542.563965,3875.897461,4503.589844,4853.333008,4178.461426,4695.897461,3698.461426
4494.358887,4043.076904,4451.794922,4305.641113,4298.461426,4358.461426,4150.256348,4550.256348,3789.230713,4405.12793,4725.641113,4183.07666,4701.025391,3704.615234
4497.435547,4037.435791,4444.615234,4305.12793,4298.461426,4364.615234,4158.974121,4551.794922,3799.487061,4407.179199,4736.922852,4166.666504,4704.615234,3710.256348
4496.410156,4033.845947,4458.461426,4301.025391,4299.487305,4355.384277,4160,4568.205078,3968.717773,4609.230469,4945.12793,4200,4708.205078,3714.358887
4494.871582,4031.794678,4437.435547,4298.461426,4298.461426,4355.897461,4154.871582,4541.025391,3188.717773,3723.076904,3850.769043,4128.205078,4702.563965,3706.666504
4494.358887,4030.769043,4312.307617,4298.461426,4296.922852,4356.410156,4152.820313,4401.025391,1428.205078,1663.076904,1548.717896,3827.692139,4694.358887,3692.307617
4490.769043,4027.179443,4197.94873,4298.461426,4295.384277,4351.794922,4155.897461,4246.153809,403.5897217,393.333313,417.9487,3555.897461,4690.256348,3683.076904
4486.666504,4016.923096,4191.794922,4293.846191,4292.307617,4356.922852,4153.333008,4196.922852,545.1281738,509.7435913,734.8717651,3504.615234,4679.487305,3676.923096
4485.641113,4012.307617,4206.666504,4290.769043,4290.256348,4354.871582,4147.692383,4206.666504,642.5640869,640.5128174,828.2050781,3519.487061,4673.333008,3677.94873
4487.179199,4014.871582,4193.333008,4293.333008,4290.769043,4356.410156,4150.256348,4197.436035,498.9743347,474.8717957,691.2820435,3490.769043,4676.410156,3680.512695
4490.256348,4020,4202.05127,4293.333008,4291.794922,4360,4170.769043,4206.666504,575.8973999,550.7692261,872.3076782,3497.94873,4687.179199,3688.205078
